'Time and date','Fp1.','Fp2.','C3.','C4.','P3.','P4.','O1.','O2.'
'hh:mm:ss.mmm dd/mm/yyyy','uV','uV','uV','uV','uV','uV','uV','uV'
'[17:42:00.000 11/09/2023]',4.549632,2.989625,93.71478,0.01574618,17.20672,28.32256,26.97111,-23.3827
'[17:42:00.004 11/09/2023]',2.377007,2.596598,40.06437,0.07137308,14.17323,8.784706,64.7988,66.95815
'[17:42:00.012 11/09/2023]',0.3920384,0.7932679,-71.14748,0.0252094,-8.251508,-14.19595,-27.2188,14.08096
'[17:42:00.020 11/09/2023]',-7.498972,-1.51421,-75.95008,-0.02297156,-12.49422,-20.38178,13.55391,-35.57265
'[17:42:00.028 11/09/2023]',-2.057239,-4.880377,-25.82657,-0.02600382,4.146582,6.742401,-217.5638,-52.15726
'[17:42:00.036 11/09/2023]',0.1400584,1.550654,40.21001,0.00216096,3.102443,16.06236,83.85471,12.62512
'[17:42:00.044 11/09/2023]',0.5526243,-1.13373,-23.80411,0.01952751,-7.771132,-15.60832,-21.28202,-0.09424698
'[17:42:00.052 11/09/2023]',0.8591933,2.958669,1.575985,0.007184351,-12.91555,-4.449274,-1.207528,25.32165
'[17:42:00.060 11/09/2023]',-7.487331,-1.880459,-287.2378,-0.009434117,-34.26569,-67.44045,-171.1191,-124.4947
'[17:42:00.068 11/09/2023]',-5.438121,-1.883514,-231.8756,-0.01692715,-13.14495,-39.77956,-163.9469,-80.79472
'[17:42:00.076 11/09/2023]',1.347406,-4.475798,-168.4521,0.002944462,-7.720476,-20.29796,-33.80128,-88.34618
'[17:42:00.084 11/09/2023]',2.482747,0.2581837,85.81636,0.007576464,10.72227,21.32572,45.39817,13.34832
'[17:42:00.092 11/09/2023]',0.05078176,-1.140781,151.0693,0.00668494,14.4836,24.30227,23.899,72.7905
'[17:42:00.100 11/09/2023]',3.671342,0.8415918,108.6674,-0.001231332,8.949462,23.58109,50.80909,59.88895
'[17:42:00.108 11/09/2023]',1.285969,0.9773403,-23.60105,-0.007834468,-10.59818,-5.441528,23.66338,-50.50336
'[17:42:00.116 11/09/2023]',-0.954089,2.422954,-81.59501,-0.006620659,-22.72286,-26.51713,-81.37894,-49.48887
'[17:42:00.124 11/09/2023]',-2.822961,0.6849245,-165.2893,0.001454585,-20.40302,-41.86744,-86.07003,-109.2371
'[17:42:00.132 11/09/2023]',-5.590379,-2.280229,-138.9032,-0.0008665355,-20.27609,-35.88282,-109.3453,-35.32167
'[17:42:00.140 11/09/2023]',0.2010025,-1.606272,-21.04945,0.0001368631,8.547081,4.371382,-24.29983,-61.06432
'[17:42:00.148 11/09/2023]',-0.01306939,-3.617887,-17.06816,-1.778798E-05,-0.2627582,-4.442141,-12.02808,21.79209
'[17:42:00.156 11/09/2023]',-0.9391261,0.2450105,66.28332,1.503836E-06,24.33877,30.27353,36.17721,6.559203
'[17:42:00.164 11/09/2023]',1.502841,-1.659542,141.3772,9.649735E-08,11.68346,29.22065,63.1436,58.18174
'[17:42:00.172 11/09/2023]',-1.130031,-0.4456419,79.0974,-8.764854E-08,-1.539927,6.294534,22.61289,23.63371
'[17:42:00.180 11/09/2023]',0.3109111,4.208469,-37.79747,2.770174E-08,-9.374161,-9.586481,-116.8964,-43.46799
'[17:42:00.188 11/09/2023]',-44.6165,-17.08782,-1662.539,-6.74792E-09,-265.6382,-410.8266,-1315.336,-1282.949
'[17:42:00.196 11/09/2023]',-17.24063,-6.56378,-981.9607,1.378238E-09,-26.61974,-148.1302,-666.676,-589.8192
'[17:42:00.204 11/09/2023]',21.88603,14.73944,129.5052,-2.648751E-10,111.7846,91.07047,-0.1135404,1.892144
'[17:42:00.212 11/09/2023]',14.29893,9.942556,312.6273,2.390226E-11,69.2899,91.63303,168.537,132.9054
'[17:42:00.220 11/09/2023]',0.9250743,2.21472,124.3424,-1.927566E-11,16.26527,25.40468,31.70444,113.6085
'[17:42:00.228 11/09/2023]',5.549979,1.993829,205.4034,-2.063257E-11,16.75761,32.68002,161.3911,93.91682
'[17:42:00.236 11/09/2023]',9.82333,6.774265,197.9807,5.817823E-12,28.47591,46.92419,161.3366,182.8369
'[17:42:00.244 11/09/2023]',-9.765574,-9.146464,111.3292,2.71577E-12,-14.00777,4.008985,90.58517,76.40306
'[17:42:00.252 11/09/2023]',-3.427633,-4.299147,-142.1819,1.162078E-11,-65.36833,-67.73013,-30.34179,-21.74232
'[17:42:00.260 11/09/2023]',-26.95765,-10.73823,-319.8465,4.00828E-12,-91.57893,-109.5987,-186.8766,-214.5919
'[17:42:00.268 11/09/2023]',1.150203,0.9234198,-96.38562,6.276047E-13,18.13238,-1.585858,-177.6115,-148.7326
'[17:42:00.276 11/09/2023]',15.52095,9.335772,232.8425,2.130202E-12,55.32575,73.58598,68.20977,111.5938
'[17:42:00.284 11/09/2023]',21.09348,12.0141,425.9369,-1.124015E-11,64.88042,104.8377,319.3444,250.253
'[17:42:00.292 11/09/2023]',10.16557,3.484241,313.6657,2.156769E-12,15.46936,50.00764,226.2881,169.0953
'[17:42:00.300 11/09/2023]',-1.346104,1.675926,5.303394,-5.815353E-12,-33.06869,-24.22797,51.03295,30.6776
'[17:42:00.308 11/09/2023]',-10.6657,-5.306816,-275.211,-1.473684E-11,-45.61356,-76.4584,-149.5933,-122.3764
'[17:42:00.316 11/09/2023]',-10.15984,-4.240632,-363.9163,-2.156769E-12,-27.26886,-68.58521,-205.1195,-176.3
'[17:42:00.324 11/09/2023]',-0.5933352,-2.174039,-113.4571,1.484377E-14,20.73996,1.408998,-105.3482,-71.52953
'[17:42:00.332 11/09/2023]',7.347617,2.391254,177.5267,-1.682517E-11,46.30909,62.29436,66.16177,67.84513
'[17:42:00.340 11/09/2023]',8.908373,5.368415,356.5658,-2.246291E-12,43.38275,76.53876,209.8425,171.8488
'[17:42:00.348 11/09/2023]',11.64055,4.093823,185.1938,-3.294536E-15,-7.046545,22.31563,116.2925,100.282
'[17:42:00.356 11/09/2023]',0.3186937,3.429608,-21.61984,5.301523E-13,-24.95826,-22.02424,15.90192,23.6939
'[17:42:00.364 11/09/2023]',-7.793282,-3.155501,-140.7954,8.101568E-12,-14.83539,-32.76549,-55.04093,-52.22838
'[17:42:00.372 11/09/2023]',-3.83624,-2.222203,-98.77335,1.181056E-12,6.238825,-8.791316,-86.94347,-81.41985
'[17:42:00.380 11/09/2023]',-4.2597,-3.739576,-33.11379,1.473684E-11,20.23717,8.470398,-13.04747,3.497864
'[17:42:00.388 11/09/2023]',5.014009,-0.8479811,51.18726,2.468351E-11,32.67004,26.82967,26.80853,53.50832
'[17:42:00.396 11/09/2023]',-14.56797,-3.102004,-100.4783,2.146062E-12,7.693161,-9.661401,-29.74955,-10.86324
'[17:42:00.404 11/09/2023]',-0.2770061,-0.9381526,15.87137,-3.294536E-15,12.38198,12.06976,-39.40499,-15.11441
'[17:42:00.412 11/09/2023]',0.5095271,2.752836,-57.21353,-4.008519E-12,0.2776466,-6.261995,-75.59326,-53.44847
'[17:42:00.420 11/09/2023]',-15.54124,-9.481245,-441.8365,-2.468351E-11,-35.30767,-84.97639,-253.0592,-194.1693
'[17:42:00.428 11/09/2023]',-0.4007461,-2.00966,-108.3838,2.468351E-11,13.02414,-0.4289781,-58.05331,-41.54514
'[17:42:00.436 11/09/2023]',2.695855,0.2347248,109.179,1.161797E-11,24.95184,29.73301,50.25188,61.4403
'[17:42:00.444 11/09/2023]',-15.20079,-5.030224,72.60208,-3.03929E-39,7.946653,20.38823,57.1534,41.90496
'[17:42:00.452 11/09/2023]',9.792694,6.129087,3.437186,7.511903E-12,-2.200371,-0.3040887,11.44235,5.113831
'[17:42:00.460 11/09/2023]',-0.2743776,-1.260275,109.0018,1.122901E-11,19.7535,22.9536,100.7132,91.87409
'[17:42:00.468 11/09/2023]',4.36025,1.537542,135.2112,-7.62394E-12,8.749357,28.98447,73.02517,45.31132
'[17:42:00.476 11/09/2023]',-0.05783318,3.087197,33.3458,-3.85288E-12,-8.541063,-1.830662,66.26738,35.46095
'[17:42:00.484 11/09/2023]',2.496848,-0.5684118,-94.8858,3.96748E-12,-18.7998,-24.45022,-7.470959,11.00931
'[17:42:00.492 11/09/2023]',-4.571577,-3.910777,-184.7797,-1.341672E-11,-7.954504,-32.01267,-115.6541,-87.47879
'[17:42:00.500 11/09/2023]',0.07100322,0.7274249,-70.96973,1.473684E-11,6.035163,-1.437259,-52.61494,-41.12156
'[17:42:00.508 11/09/2023]',3.323178,2.332467,74.70721,-3.137175E-12,22.54131,21.45479,9.362832,-1.713496
'[17:42:00.516 11/09/2023]',-27.11138,-23.23257,-215.7412,-1.473684E-11,-120.3898,-87.11224,-295.9834,-616.8889
'[17:42:00.524 11/09/2023]',13.34084,12.10245,-66.76303,-3.294536E-15,15.99339,-4.991756,-84.48661,-150.5025
'[17:42:00.532 11/09/2023]',10.24355,9.368192,-81.29414,1.156377E-11,46.07788,10.60036,-57.09457,-24.96462
'[17:42:00.540 11/09/2023]',4.441298,5.253222,5.394376,-1.848528E-12,28.05507,13.18023,34.05887,90.41877
'[17:42:00.548 11/09/2023]',2.048616,4.084265,-11.23956,-3.137175E-12,13.72234,5.928536,5.310123,10.52928
'[17:42:00.556 11/09/2023]',5.592215,4.187888,18.9025,-9.224718E-12,13.85197,13.60334,2.869886,11.63686
'[17:42:00.564 11/09/2023]',9.112072,5.493166,131.0856,1.842076E-11,40.4453,43.71455,115.2832,163.291
'[17:42:00.572 11/09/2023]',-4.819761,-4.325252,66.88919,-1.122901E-11,-3.018486,5.378463,48.79629,61.66473
'[17:42:00.580 11/09/2023]',-6.936244,-7.352689,-17.24192,-1.124015E-11,-46.11574,-30.66712,1.282398,-17.61612
'[17:42:00.588 11/09/2023]',-20.23031,-10.86812,-102.7734,-4.008519E-12,-38.43347,-33.61903,-76.61017,-127.0574
'[17:42:00.596 11/09/2023]',-3.960487,-1.226509,-94.31515,3.137175E-12,-15.77273,-17.34761,-78.1108,-118.3659
'[17:42:00.604 11/09/2023]',11.83761,6.729022,-39.04025,1.682517E-11,34.49315,13.45391,-43.58451,-40.2977
'[17:42:00.612 11/09/2023]',9.811923,10.89031,64.12447,2.717939E-12,41.63967,38.23884,62.68895,83.86594
'[17:42:00.620 11/09/2023]',3.561778,0.8521056,104.9646,1.682517E-11,14.31723,14.57375,75.98895,143.7304
'[17:42:00.628 11/09/2023]',-4.704161,-1.756379,53.90972,-7.820602E-12,-13.14616,-0.5416741,41.927,44.89352
'[17:42:00.636 11/09/2023]',-0.07308321,-5.202655,56.80205,-9.580193E-12,-20.22776,2.244957,41.72049,2.515382
'[17:42:00.644 11/09/2023]',-4.026187,-6.451297,40.39761,-9.580193E-12,-1.73894,1.970936,-9.218841,-23.74327
'[17:42:00.652 11/09/2023]',1.481021,2.351104,-3.432856,7.820602E-12,17.93555,12.01561,-6.752301,-36.1422
'[17:42:00.660 11/09/2023]',-5.930211,0.2015006,-4.853496,3.137175E-12,29.42629,18.90364,-38.84273,-3.381802
'[17:42:00.668 11/09/2023]',2.244869,2.959783,-2.016064,-5.301523E-13,1.351536,-1.065798,9.708436,2.217093
'[17:42:00.676 11/09/2023]',-2.050476,-1.166309,17.95881,-1.156377E-11,3.31548,9.498758,-10.14568,-7.755007
'[17:42:00.684 11/09/2023]',6.918743,3.070245,234.7848,3.294536E-15,39.09769,63.54846,117.7573,58.06424
'[17:42:00.692 11/09/2023]',-0.370391,-1.557189,110.3465,-1.491649E-12,9.070257,26.73998,77.52394,81.12688
'[17:42:00.700 11/09/2023]',-2.951432,-0.6061904,-54.27071,9.224718E-12,-11.16677,-20.12652,-26.75646,-19.26605
'[17:42:00.708 11/09/2023]',-4.764615,4.39472,-442.8687,0,-88.43195,-123.0548,-185.5007,-156.8942
'[17:42:00.716 11/09/2023]',-2.22174,-0.03852377,-226.5721,0,-67.71387,-87.52162,-102.0598,-120.1231
'[17:42:00.724 11/09/2023]',-12.02863,-8.817685,-351.5797,0,-34.74464,-74.15083,-151.8221,-124.5034
'[17:42:00.732 11/09/2023]',-7.722589,-4.876421,-112.7742,-1.518422E-11,4.533406,-15.49367,-97.13625,-72.78323
'[17:42:00.740 11/09/2023]',2.060378,0.9454058,-2.163291,1.122901E-11,13.18288,9.80248,22.28701,23.67804
'[17:42:00.748 11/09/2023]',-2.953355,1.09348,-30.58392,-7.229935E-12,8.723498,-5.421596,-1.797925,30.52903
'[17:42:00.756 11/09/2023]',2.279213,0.7170506,-2.226991,6.614118E-12,10.83819,8.611423,22.3498,10.62797
'[17:42:00.764 11/09/2023]',1.72822,0.2792243,103.5881,-3.137175E-12,27.40574,23.45554,97.09726,47.48265
'[17:42:00.772 11/09/2023]',1.854093,-2.063241,220.27,7.62394E-12,0.3031747,67.96337,129.3961,135.2983
'[17:42:00.780 11/09/2023]',0.05221203,-1.909803,47.14634,9.692061E-12,5.283245,-6.794423,84.20918,19.76966
'[17:42:00.788 11/09/2023]',-2.56967,2.991061,-137.2374,3.96748E-12,-22.45315,-34.35126,-83.35924,-60.49019
'[17:42:00.796 11/09/2023]',-3.906477,-1.447304,-171.515,0,-27.20712,-33.61535,-71.41379,-51.02218
'[17:42:00.804 11/09/2023]',0.2417639,-1.719172,-75.72389,1.175071E-11,0.716297,-12.34587,-84.55812,-16.59991
'[17:42:00.812 11/09/2023]',3.467512,0.1479857,14.62192,-5.301523E-13,20.25648,20.24314,2.80643,-9.079574
'[17:42:00.820 11/09/2023]',0.9364787,-0.1579711,57.53116,1.455289E-11,0.7343197,13.14713,19.94022,14.88013
'[17:42:00.828 11/09/2023]',2.724296,3.856426,-12.54017,1.455289E-11,-12.92372,-3.641553,100.06,-20.08233
'[17:42:00.836 11/09/2023]',1.739612,2.091216,15.99963,-7.715452E-12,1.443959,4.420526,-9.198014,-19.63892
'[17:42:00.844 11/09/2023]',-2.211071,1.494788,-67.40308,-1.799343E-12,-3.557064,-17.35326,-51.41253,-7.009053
'[17:42:00.852 11/09/2023]',-2.476212,-2.815166,-59.4296,1.518738E-11,-1.387641,-10.96481,-42.72572,-22.22562
'[17:42:00.860 11/09/2023]',2.28527,0.5165976,124.382,8.008041E-13,10.77475,29.12703,78.42851,94.86118
'[17:42:00.868 11/09/2023]',1.14521,-1.446814,180.9268,-9.224718E-12,14.16899,40.77016,62.70149,17.16058
'[17:42:00.876 11/09/2023]',3.664034,-0.5267935,82.22514,-9.224718E-12,9.352357,13.22534,98.53542,82.2493
'[17:42:00.884 11/09/2023]',-0.989831,0.5271138,-32.79027,0,-6.213609,-11.28153,-42.40845,-48.97922
'[17:42:00.892 11/09/2023]',-0.5921181,-0.1065318,-4.926675,-7.229935E-12,-1.46268,-1.322284,39.56357,40.43511
'[17:42:00.900 11/09/2023]',1.701736,-0.9285227,-10.94939,-8.200284E-12,1.874417,-1.588436,-18.32758,-14.78043
'[17:42:00.908 11/09/2023]',-1.427303,1.903978,16.19561,1.341672E-11,8.790204,3.374269,6.237305,4.407521
'[17:42:00.916 11/09/2023]',0.0706744,-1.236825,-10.06004,6.614118E-12,-3.471641,-5.327579,-19.01128,-18.7815
'[17:42:00.924 11/09/2023]',-0.9478015,-1.845227,-11.15916,-1.156377E-11,-1.186964,1.268926,-5.990382,3.521457
'[17:42:00.932 11/09/2023]',-1.203028,-0.2167491,6.320302,-1.161797E-11,6.79798,4.581948,21.43451,23.01306
'[17:42:00.940 11/09/2023]',-0.4320152,-2.077846,-22.56868,0,-5.787274,0.006744034,-25.28622,-32.15436
'[17:42:00.948 11/09/2023]',7.286812,2.834938,55.44893,-1.842076E-11,6.490702,13.59286,51.19621,58.4445
'[17:42:00.956 11/09/2023]',-0.9005011,-0.009879971,-15.02131,-1.848528E-12,-3.153052,-5.264827,-14.78482,-28.47862
'[17:42:00.964 11/09/2023]',2.304835,5.033777,-3.092111,-1.161797E-11,0.5384861,0.4090744,-10.05402,-12.62245
'[17:42:00.972 11/09/2023]',3.009139,-0.8179904,12.72872,0,-6.637996,-3.251668,35.69251,28.09996
'[17:42:00.980 11/09/2023]',-1.720439,-2.681144,-6.617029,-1.341672E-11,-6.283549,-6.813179,5.415791,10.74783
'[17:42:00.988 11/09/2023]',4.149067,2.083786,34.43706,-1.473684E-11,6.011233,8.568026,40.00012,48.15919
'[17:42:00.996 11/09/2023]',1.48019,2.605631,3.225861,1.842076E-11,1.58431,2.392059,-0.3127167,24.37668
'[17:42:01.004 11/09/2023]',-0.8240731,0.6814355,-2.978668,-8.200284E-12,4.965612,4.537939,9.03655,-21.76428
'[17:42:01.012 11/09/2023]',0.8607215,-0.973913,-16.49909,6.276356E-13,-5.928161,-8.894464,-42.37183,-23.40421
'[17:42:01.020 11/09/2023]',-1.242143,-0.03525539,-0.5291759,-7.820602E-12,-0.8583318,1.67542,-12.09687,-40.69083
'[17:42:01.028 11/09/2023]',4.225358,1.230524,15.66661,7.293692E-12,1.851259,-0.5008591,29.00532,62.28126
'[17:42:01.036 11/09/2023]',2.447012,5.143062,-10.38512,-1.848528E-12,6.121427,-3.033313,-23.85342,-26.49795
'[17:42:01.044 11/09/2023]',-2.110134,2.727491,7.695565,-8.200284E-12,3.47709,6.991973,27.68569,27.77844
'[17:42:01.052 11/09/2023]',-0.2700582,-0.6082079,-17.4665,-5.815353E-12,-2.491408,-2.301683,-25.05974,-7.179792
'[17:42:01.060 11/09/2023]',1.647716,2.825557,-13.37447,-2.130203E-12,-4.292027,-0.313475,-10.25552,-26.39107
'[17:42:01.068 11/09/2023]',-3.02668,-0.9065589,4.538385,1.799343E-12,2.062093,-3.076422,2.29862,2.214616
'[17:42:01.076 11/09/2023]',0.4613018,0.4104837,-4.599454,-1.473684E-11,-3.405503,-3.201628,-16.7438,-4.022428
'[17:42:01.084 11/09/2023]',-2.021355,0.3683849,-22.82752,-7.28376E-12,-7.942058,-6.824998,-19.53545,-24.61887
'[17:42:01.092 11/09/2023]',0.6875283,1.661523,45.24628,-9.692061E-12,15.50963,18.21518,82.62011,81.82653
'[17:42:01.100 11/09/2023]',4.017865,3.086772,-7.590416,-5.062676E-12,4.625551,3.65022,-11.15117,4.465825
'[17:42:01.108 11/09/2023]',59.27298,35.10595,744.4916,0,221.1023,246.6589,457.8847,486.7776
'[17:42:01.116 11/09/2023]',14.00897,4.155702,809.8282,1.341672E-11,88.68935,173.081,542.8352,492.5709
'[17:42:01.124 11/09/2023]',-1.313265,-2.340578,208.6043,1.341672E-11,-19.14722,15.20354,190.9931,147.4514
'[17:42:01.132 11/09/2023]',-5.847681,-4.592999,-75.24267,1.341672E-11,-34.38617,-31.9014,-33.23421,-3.398851
'[17:42:01.140 11/09/2023]',-1.416318,-1.646697,-31.4772,1.341672E-11,2.235993,-6.489776,-11.8315,-152.9819
'[17:42:01.148 11/09/2023]',-0.09099805,-0.3814343,18.8097,1.341672E-11,-12.08838,-4.921649,47.39727,106.0451
'[17:42:01.156 11/09/2023]',-23.48207,-7.460558,-116.987,1.341672E-11,-38.84674,-40.69944,-23.19482,-29.63076
'[17:42:01.164 11/09/2023]',-3.40824,-2.414341,-273.4368,1.341672E-11,-35.54752,-66.50158,-183.6199,-183.2734
'[17:42:01.172 11/09/2023]',1.014064,-0.3876984,-134.1377,1.341672E-11,16.60153,-9.342133,-94.17076,-92.21438
'[17:42:01.180 11/09/2023]',6.644021,4.674716,166.6226,1.341672E-11,53.13681,64.08395,70.08064,115.7591
'[17:42:01.188 11/09/2023]',9.863258,3.195836,291.1951,1.341672E-11,37.70401,66.21378,169.3221,-5.577672
'[17:42:01.196 11/09/2023]',-1.140338,-3.048149,154.2557,1.341672E-11,-8.997818,17.25892,129.522,261.3739
'[17:42:01.204 11/09/2023]',-6.914428,-4.105559,-118.3988,1.341672E-11,-47.32159,-44.09941,-63.60443,-165.8192
'[17:42:01.212 11/09/2023]',-8.396607,-6.246661,-216.2964,1.341672E-11,-31.63358,-57.38224,-130.9163,-5.407467
'[17:42:01.220 11/09/2023]',-4.580921,1.698971,-174.2214,1.341672E-11,-6.474936,-34.32099,-181.9498,-235.7963
'[17:42:01.228 11/09/2023]',1.928361,1.064366,24.57519,1.341672E-11,22.89817,16.21942,-14.88286,2.99175
'[17:42:01.236 11/09/2023]',4.981146,0.7393527,107.5087,1.341672E-11,19.52411,29.81058,36.45325,55.81318
'[17:42:01.244 11/09/2023]',-2.502034,-4.804241,107.3826,1.341672E-11,6.205584,13.90359,63.68793,64.28898
'[17:42:01.252 11/09/2023]',-0.06148757,0.02254527,11.57043,1.341672E-11,-12.47188,-2.815516,11.2344,61.65938
'[17:42:01.260 11/09/2023]',-0.8386111,-0.9888738,-51.78345,1.341672E-11,-8.082068,-9.39519,-40.94625,-85.244
'[17:42:01.268 11/09/2023]',-0.6234667,-0.04179438,-29.65947,1.341672E-11,-2.97495,-1.747607,-4.68447,17.66045
'[17:42:01.276 11/09/2023]',-2.219945,-0.3412375,-13.49063,1.341672E-11,-6.363656,-1.760671,0.6281132,2.731882
'[17:42:01.284 11/09/2023]',5.319495,5.067371,12.2782,1.341672E-11,7.856009,8.904688,-2.822964,10.99349
'[17:42:01.292 11/09/2023]',2.706386,2.953723,-9.215226,1.341672E-11,2.999159,-0.2194793,-14.48728,-28.1437
'[17:42:01.300 11/09/2023]',-0.8302864,-0.09827252,5.782529,1.341672E-11,4.355986,1.95964,7.55815,15.7575
'[17:42:01.308 11/09/2023]',0.148598,3.659005,-24.15318,1.341672E-11,3.679004,-1.306473,-43.22115,-42.75665
'[17:42:01.316 11/09/2023]',-1.095605,4.312785,-4.687627,1.341672E-11,-2.317196,0.1973505,-21.54744,-26.71954
'[17:42:01.324 11/09/2023]',-2.83712,-2.069756,7.612783,1.341672E-11,-5.558704,-4.792224,-3.049712,13.28313
'[17:42:01.332 11/09/2023]',1.461051,3.577717,7.385419,1.341672E-11,1.62511,4.691975,2.501895,-4.900796
'[17:42:01.340 11/09/2023]',4.833043,3.184152,9.828,1.341672E-11,-4.657578,-2.308356,16.78543,18.57505
'[17:42:01.348 11/09/2023]',3.745612,2.295792,13.82706,1.341672E-11,1.859411,4.9965,36.64943,26.19815
'[17:42:01.356 11/09/2023]',3.92519,-0.0372141,8.739542,1.341672E-11,9.836313,4.795349,9.48666,-4.145741
'[17:42:01.364 11/09/2023]',7.828316,1.717201,-1.166166,1.341672E-11,-4.261191,-5.041277,-12.01509,-12.29876
'[17:42:01.372 11/09/2023]',-2.262567,1.427472,40.15445,1.341672E-11,6.447625,5.358517,37.39731,42.63569
'[17:42:01.380 11/09/2023]',-3.928791,-3.072027,12.26896,1.341672E-11,4.645562,3.598709,21.80245,5.847504
'[17:42:01.388 11/09/2023]',-0.5376769,0.8615114,-8.698035,1.341672E-11,1.272786,0.6663107,4.279597,11.22385
'[17:42:01.396 11/09/2023]',-13.74303,-2.629903,91.14254,1.341672E-11,18.96715,28.24562,83.30776,72.49989
'[17:42:01.404 11/09/2023]',8.911646,2.909875,130.1238,1.341672E-11,19.97445,32.96073,103.095,107.3066
'[17:42:01.412 11/09/2023]',2.069493,1.692349,90.20115,1.341672E-11,6.00758,17.94597,69.66991,77.73639
'[17:42:01.420 11/09/2023]',-3.548604,-4.501806,-32.04084,1.341672E-11,-19.52839,-18.77036,-56.40775,-66.83299
'[17:42:01.428 11/09/2023]',-5.817505,-6.234762,-60.36263,1.341672E-11,-7.415299,-19.87301,-63.89333,-55.56726
'[17:42:01.436 11/09/2023]',-0.6509884,9.346037,10.56239,1.341672E-11,3.87998,5.370111,21.50498,24.01432
'[17:42:01.444 11/09/2023]',0.2856787,-0.1785903,-32.0594,1.341672E-11,-5.240415,-9.187203,-46.41383,-63.67955
'[17:42:01.452 11/09/2023]',-5.247343,-1.79214,-36.37658,1.341672E-11,-9.400124,-14.53316,-35.84049,-31.29848
'[17:42:01.460 11/09/2023]',-3.461509,-1.245035,-19.82369,1.341672E-11,0.2259696,2.384344,17.08867,26.30579
'[17:42:01.468 11/09/2023]',5.600045,3.857516,33.82071,1.341672E-11,13.47789,16.20635,42.13374,49.96833
'[17:42:01.476 11/09/2023]',-3.16153,0.1301077,39.90375,1.341672E-11,5.509071,9.28588,23.90454,11.44221
'[17:42:01.484 11/09/2023]',-0.9136046,-0.7781454,30.14968,1.341672E-11,9.002605,7.871997,14.35633,9.67596
'[17:42:01.492 11/09/2023]',0.8339212,3.056634,7.914747,1.341672E-11,0.3765273,2.512298,3.072468,-8.666948
'[17:42:01.500 11/09/2023]',-1.639296,-1.291072,-23.18201,1.341672E-11,-6.111857,-11.76545,-18.91207,-17.27956
'[17:42:01.508 11/09/2023]',2.029871,3.014185,-11.54181,1.341672E-11,-4.34623,0.2393267,-1.560414,-11.17528
'[17:42:01.516 11/09/2023]',4.017462,0.2058326,-9.131186,1.341672E-11,5.503291,2.74083,4.953209,16.42116
'[17:42:01.524 11/09/2023]',1.310724,0.612062,27.63777,1.341672E-11,5.567194,10.38275,59.54374,60.79356
'[17:42:01.532 11/09/2023]',2.360507,0.1929848,26.81237,1.341672E-11,8.799255,13.00072,8.122375,17.36932
'[17:42:01.540 11/09/2023]',-1.925669,-2.420747,28.71521,1.341672E-11,1.523678,4.760819,21.46718,166.7006
'[17:42:01.548 11/09/2023]',-1.653872,-1.429654,-29.56195,1.341672E-11,-3.133209,-5.454755,-36.89922,-43.07906
'[17:42:01.556 11/09/2023]',2.075182,2.496351,-24.94999,1.341672E-11,2.079361,-2.711341,-24.52721,-147.822
'[17:42:01.564 11/09/2023]',-0.3562322,-0.1088682,-41.78174,1.341672E-11,-5.841272,-11.00014,-74.49946,-32.02014
'[17:42:01.572 11/09/2023]',0.01913298,-0.8037241,33.68846,1.341672E-11,2.729692,8.164686,52.92958,39.76152
'[17:42:01.580 11/09/2023]',-1.259737,0.2271176,18.26769,1.341672E-11,-4.867598,-0.2773308,8.590922,13.09093
'[17:42:01.588 11/09/2023]',-3.577713,-1.354506,3.140197,1.341672E-11,-1.481112,3.66931,8.064619,18.96876
'[17:42:01.596 11/09/2023]',-3.731793,-5.218017,5.49407,1.341672E-11,-7.291256,-6.631256,15.17669,13.10363
'[17:42:01.604 11/09/2023]',2.588691,2.225824,-19.46381,1.341672E-11,-0.6270678,-1.124979,-5.380675,14.58819
'[17:42:01.612 11/09/2023]',-2.587145,-2.480971,-8.400388,1.341672E-11,-2.347306,-1.918473,-8.449959,-11.6873
'[17:42:01.620 11/09/2023]',0.8466371,1.168104,-6.384556,1.341672E-11,-2.146319,2.487351,-7.9759,-8.469732
'[17:42:01.628 11/09/2023]',0.6505329,-0.5512138,19.56993,1.341672E-11,-0.01896787,4.853153,21.09848,31.46957
'[17:42:01.636 11/09/2023]',3.231923,2.469128,30.17917,1.341672E-11,5.982018,12.83813,38.21154,31.82611
'[17:42:01.644 11/09/2023]',3.434294,4.657808,18.57335,1.341672E-11,8.359095,4.103542,33.06962,36.60906
'[17:42:01.652 11/09/2023]',-0.9948075,-1.725097,-28.54521,1.341672E-11,0.7097731,-6.305779,-39.36281,-36.79197
'[17:42:01.660 11/09/2023]',-1.073288,-1.55494,-31.71646,1.341672E-11,-2.004391,-9.307945,-45.35314,-19.90077
'[17:42:01.668 11/09/2023]',-1.773285,-3.604688,-12.68991,1.341672E-11,-15.07319,-15.78615,3.022961,4.806365
'[17:42:01.676 11/09/2023]',1.352256,2.83952,29.11643,1.341672E-11,4.234785,7.193509,42.75612,26.50314
'[17:42:01.684 11/09/2023]',2.403437,2.526225,38.18468,1.341672E-11,5.311474,17.32239,75.29506,68.92049
'[17:42:01.692 11/09/2023]',1.334777,-1.106001,-1.482108,1.341672E-11,-1.15977,5.914624,3.665068,-0.0819401
'[17:42:01.700 11/09/2023]',10.1533,3.190292,36.22776,1.341672E-11,0.501331,7.676473,41.43263,46.13079
'[17:42:01.708 11/09/2023]',2.143487,2.340761,0.9834809,1.341672E-11,3.826355,0.8635435,9.976871,7.21554
'[17:42:01.716 11/09/2023]',1.003162,0.9677931,-11.62495,1.341672E-11,0.1783245,3.675879,-23.16605,-23.94221
'[17:42:01.724 11/09/2023]',3.073752,2.400825,23.89124,1.341672E-11,-0.1092655,-2.776509,20.14567,29.61557
'[17:42:01.732 11/09/2023]',2.355739,3.609307,37.68228,1.341672E-11,20.52021,20.46355,41.2749,38.06242
'[17:42:01.740 11/09/2023]',8.455679,0.3994479,19.52737,1.341672E-11,-0.7739323,0.6748211,14.18489,2.381861
'[17:42:01.748 11/09/2023]',-2.274132,1.994221,-13.10087,1.341672E-11,-9.071023,-5.135304,3.109757,10.51856
'[17:42:01.756 11/09/2023]',2.637707,-0.7110992,-0.1220562,1.341672E-11,-2.660337,-3.640939,31.56458,21.53437
'[17:42:01.764 11/09/2023]',-0.452675,-1.596359,-5.294783,1.341672E-11,-6.868575,-1.780087,5.67896,21.30903
'[17:42:01.772 11/09/2023]',54.17754,30.30697,-116.0259,1.341672E-11,213.8479,131.3519,-193.3861,-164.8549
'[17:42:01.780 11/09/2023]',37.67494,20.50966,1085.894,1.341672E-11,241.3415,327.6183,618.5924,656.6613
'[17:42:01.788 11/09/2023]',10.57454,5.643934,731.9517,1.341672E-11,67.29038,144.0324,492.6842,445.0066
'[17:42:01.796 11/09/2023]',5.788967,1.440045,67.59956,1.341672E-11,-23.97589,-4.137363,73.89166,37.88145
'[17:42:01.804 11/09/2023]',-2.118507,-4.388166,36.27703,1.341672E-11,-8.738157,1.478503,7.223726,9.84663
'[17:42:01.812 11/09/2023]',5.097795,4.257549,240.1163,1.341672E-11,6.849766,38.7017,172.1482,120.81
'[17:42:01.820 11/09/2023]',-8.855727,-4.125599,-37.57734,1.341672E-11,-41.95996,-31.10752,-31.68966,-26.95188
'[17:42:01.828 11/09/2023]',-16.77277,-9.453032,-335.2371,1.341672E-11,-85.46922,-110.9125,-212.1544,-220.6818
'[17:42:01.836 11/09/2023]',-12.64062,-5.503783,-457.4781,1.341672E-11,-42.14093,-89.49702,-301.6314,-268.421
'[17:42:01.844 11/09/2023]',13.15405,5.21093,10.43174,1.341672E-11,55.37365,41.77722,-31.8585,-46.53762
'[17:42:01.852 11/09/2023]',21.86275,13.29997,434.1318,1.341672E-11,101.1586,130.3558,214.7657,211.4401
'[17:42:01.860 11/09/2023]',13.57364,7.211523,512.3353,1.341672E-11,55.71178,113.6587,351.1851,317.7665
'[17:42:01.868 11/09/2023]',-4.159027,-4.70179,120.8879,1.341672E-11,-29.35594,0.3696979,107.3873,81.89988
'[17:42:01.876 11/09/2023]',-10.86773,-4.346958,-193.0059,1.341672E-11,-60.87378,-72.18491,-107.8231,-133.7859
'[17:42:01.884 11/09/2023]',-9.345209,-3.23596,-300.7968,1.341672E-11,-40.66985,-71.30373,-181.4172,-151.0611
'[17:42:01.892 11/09/2023]',2.794817,1.572146,-132.8876,1.341672E-11,11.56376,-10.56497,-115.1164,-96.99241
'[17:42:01.900 11/09/2023]',3.512171,-0.6576122,122.2539,1.341672E-11,44.79136,51.1537,102.7783,95.995
'[17:42:01.908 11/09/2023]',7.247242,5.009457,165.7129,1.341672E-11,28.08348,47.66076,105.1229,101.9344
'[17:42:01.916 11/09/2023]',-1.753015,-0.6942505,112.7652,1.341672E-11,0.6263587,15.82666,97.93022,95.31887
'[17:42:01.924 11/09/2023]',-4.502604,-2.803147,-58.56294,1.341672E-11,-27.52987,-27.20399,-64.75562,-94.51154
'[17:42:01.932 11/09/2023]',-5.480079,-5.048901,-62.45211,1.341672E-11,-13.86406,-14.22526,-1.518984,11.03611
'[17:42:01.940 11/09/2023]',-4.576395,-2.334567,-75.2441,1.341672E-11,-11.30964,-22.96544,-81.08625,-88.7521
'[17:42:01.948 11/09/2023]',4.145372,5.726847,15.31981,1.341672E-11,13.62228,6.451167,58.12718,54.17659
'[17:42:01.956 11/09/2023]',7.975027,1.836069,-17.14039,1.341672E-11,1.8172,-8.245406,-55.75219,0.7784616
'[17:42:01.964 11/09/2023]',2.486768,1.156114,14.97439,1.341672E-11,5.964672,0.7387242,35.83102,1.738969
'[17:42:01.972 11/09/2023]',-1.681081,-0.5993704,-7.638755,1.341672E-11,-1.11671,-0.6068513,-26.50357,-21.35381
'[17:42:01.980 11/09/2023]',6.775459,4.429366,46.50325,1.341672E-11,9.713758,12.0242,30.44063,46.91509
'[17:42:01.988 11/09/2023]',0.1406418,1.04222,73.51978,1.341672E-11,-0.8503653,13.56539,52.95952,35.04665
'[17:42:01.996 11/09/2023]',-1.440945,0.7811843,23.3961,1.341672E-11,-5.307545,-0.4871284,35.23413,30.19894
'[17:42:02.004 11/09/2023]',-4.586039,-0.5306734,4.56771,1.341672E-11,-7.909639,3.074534,-28.97483,-48.10346
'[17:42:02.012 11/09/2023]',0.455983,-0.128489,-98.69301,1.341672E-11,-22.46577,-23.24059,-8.95628,-12.96294
'[17:42:02.020 11/09/2023]',0.9753239,3.963063,-112.1418,1.341672E-11,-1.765994,-19.17473,-74.5882,-34.11537
'[17:42:02.028 11/09/2023]',-1.073661,-3.602024,-23.22436,1.341672E-11,-13.73404,-20.12899,27.77869,-13.75153
'[17:42:02.036 11/09/2023]',4.347751,0.5249725,99.7864,1.341672E-11,-4.638756,13.60639,121.6123,74.58157
'[17:42:02.044 11/09/2023]',2.140989,0.8414866,97.51972,1.341672E-11,1.761382,14.04407,85.36413,75.57041
'[17:42:02.052 11/09/2023]',0.01244738,-1.187647,9.642994,1.341672E-11,-11.96385,0.7978085,46.84615,8.067156
'[17:42:02.060 11/09/2023]',-3.923925,-0.9220526,-105.6102,1.341672E-11,-14.54539,-22.29004,-99.80202,-108.6295
'[17:42:02.068 11/09/2023]',-4.211975,0.5549788,-56.41695,1.341672E-11,-4.61842,-13.52557,-67.50912,-45.69682
'[17:42:02.076 11/09/2023]',2.579957,2.951201,-6.128006,1.341672E-11,11.27744,6.989854,54.18488,-7.252785
'[17:42:02.084 11/09/2023]',-5.596866,-4.350797,21.49916,1.341672E-11,3.734528,10.3643,-20.58941,-41.3643
'[17:42:02.092 11/09/2023]',1.341969,4.524884,-46.46115,1.341672E-11,4.860267,-9.602715,-170.6905,102.3484
'[17:42:02.100 11/09/2023]',-3.371093,-4.650746,-21.44105,1.341672E-11,-7.126452,8.675335,179.3214,-21.5405
'[17:42:02.108 11/09/2023]',-13.8627,-14.52698,46.4255,1.341672E-11,-18.04405,-15.47003,-55.90073,-68.00443
'[17:42:02.116 11/09/2023]',-4.396333,-6.872774,87.03669,1.341672E-11,3.522658,19.4536,69.37297,19.57483
'[17:42:02.124 11/09/2023]',-1.592731,-1.12786,79.75312,1.341672E-11,7.530079,8.563959,-18.93594,21.34435
'[17:42:02.132 11/09/2023]',-0.8559011,-0.7341291,0.1367934,1.341672E-11,-14.75236,-2.51326,36.24069,4.868161
'[17:42:02.140 11/09/2023]',-5.677323,-3.292512,-96.0618,1.341672E-11,-8.377888,-22.17006,-33.32633,-100.4376
'[17:42:02.148 11/09/2023]',-3.730733,-2.144642,-51.12272,1.341672E-11,0.2120496,-57.26188,-94.43705,-6.263073
'[17:42:02.156 11/09/2023]',2.259468,-1.852182,131.9218,1.341672E-11,14.7407,43.63356,83.01031,31.76571
'[17:42:02.164 11/09/2023]',-1.519246,0.6270927,41.43016,1.341672E-11,7.43152,10.70485,45.45641,4.899058
'[17:42:02.172 11/09/2023]',-2.881894,-1.703522,-11.04382,1.341672E-11,-3.219831,-9.958048,-64.3075,-34.45927
'[17:42:02.180 11/09/2023]',2.47402,2.283074,31.42448,1.341672E-11,2.453171,-2.600976,30.3455,-11.64466
'[17:42:02.188 11/09/2023]',-4.224342,-4.157702,-22.11881,1.341672E-11,2.769165,-6.451736,-0.4680152,3.175338
'[17:42:02.196 11/09/2023]',-1.94841,-1.4761,-89.06156,1.341672E-11,-3.773787,-8.430714,-18.90919,10.55954
'[17:42:02.204 11/09/2023]',3.47163,2.983957,84.99497,1.341672E-11,6.035244,17.49615,10.33578,-14.77013
'[17:42:02.212 11/09/2023]',4.665393,1.041541,36.84328,1.341672E-11,7.43107,15.57225,87.50634,48.43679
'[17:42:02.220 11/09/2023]',2.032715,0.9596739,16.03628,1.341672E-11,11.61235,3.258003,-7.484045,-29.276
'[17:42:02.228 11/09/2023]',-3.952854,-5.331915,20.83161,1.341672E-11,9.205795,-1.832447,12.83051,4.581887
'[17:42:02.236 11/09/2023]',-13.38483,-10.23347,39.4334,1.341672E-11,13.45539,-3.907712,13.51972,-87.37218
'[17:42:02.244 11/09/2023]',12.2169,10.11441,-7.909445,1.341672E-11,-31.74607,-12.60958,-70.22585,-49.61433
'[17:42:02.252 11/09/2023]',-2.072579,4.060174,-53.14295,1.341672E-11,3.885018,4.947942,-53.90437,-77.60542
'[17:42:02.260 11/09/2023]',-0.3049168,0.5967211,19.84811,1.341672E-11,-10.04921,-11.15157,10.38239,92.86211
'[17:42:02.268 11/09/2023]',1.481385,-5.273576,-95.64536,1.341672E-11,8.189791,2.770414,68.90866,111.5663
'[17:42:02.276 11/09/2023]',-2.183507,-1.273619,23.31154,1.341672E-11,-9.900393,-7.465026,6.707839,-53.09845
'[17:42:02.284 11/09/2023]',0.004132386,-0.3200493,143.474,1.341672E-11,6.58758,4.808332,-55.05735,26.4174
'[17:42:02.292 11/09/2023]',-2.912753,-4.596907,-100.81,1.341672E-11,-4.277892,-18.04416,-48.23136,-79.77119
'[17:42:02.300 11/09/2023]',0.4590683,-1.046693,10.4781,1.341672E-11,13.04818,3.097616,-31.06762,21.94139
'[17:42:02.308 11/09/2023]',-1.648871,-2.68035,-9.762144,1.341672E-11,2.533258,1.251647,31.77761,59.85428
'[17:42:02.316 11/09/2023]',1.021764,1.043194,26.32242,1.341672E-11,7.459595,12.67418,40.26101,40.22605
'[17:42:02.324 11/09/2023]',1.091953,-1.74487,13.44074,1.341672E-11,-1.103279,8.402319,16.29286,26.07135
'[17:42:02.332 11/09/2023]',-3.463096,-1.603902,-24.90328,1.341672E-11,-3.179354,-7.326159,-22.93806,-52.32019
'[17:42:02.340 11/09/2023]',-4.626914,-2.438054,-9.708099,1.341672E-11,-1.264905,-1.847236,24.4805,5.123716
'[17:42:02.348 11/09/2023]',-0.3314044,-0.6066303,-2.718247,1.341672E-11,1.616022,-4.477107,-11.61368,-5.248438
'[17:42:02.356 11/09/2023]',0.08201569,2.269178,3.998193,1.341672E-11,9.910883,10.66988,50.90474,60.27092
'[17:42:02.364 11/09/2023]',3.130507,0.7625822,42.8004,1.341672E-11,10.57524,8.256015,29.496,43.28508
'[17:42:02.372 11/09/2023]',0.4176168,3.564928,-22.06972,1.341672E-11,-6.680681,-3.957561,-37.21242,-20.96454
'[17:42:02.380 11/09/2023]',1.498578,0.674817,15.37212,1.341672E-11,3.868601,5.305742,55.76161,23.14466
'[17:42:02.388 11/09/2023]',0.4026554,0.5034382,-4.714704,1.341672E-11,-7.713911,-3.683998,-72.81981,-43.59955
'[17:42:02.396 11/09/2023]',-7.534742,-4.860354,69.55,1.341672E-11,-0.5383512,-5.004508,-12.17937,-38.86945
'[17:42:02.404 11/09/2023]',0.9753051,-0.8645361,31.31593,1.341672E-11,2.37314,8.234987,14.23853,-6.258883
'[17:42:02.412 11/09/2023]',-1.922737,-3.019516,10.75571,1.341672E-11,-0.7662625,-2.448679,-10.45661,-15.07355
'[17:42:02.420 11/09/2023]',1.07844,1.416598,-14.70342,1.341672E-11,-0.5279027,-0.2735621,-2.520358,12.07023
'[17:42:02.428 11/09/2023]',-2.539897,2.489318,4.57091,1.341672E-11,-2.454893,-2.951624,-16.75752,-33.38466
'[17:42:02.436 11/09/2023]',-0.864279,-2.988096,19.49904,1.341672E-11,5.785224,6.994584,45.14319,54.74459
'[17:42:02.444 11/09/2023]',0.6725056,2.341197,-23.12573,1.341672E-11,-7.889911,-13.4823,-47.54493,-51.84877
'[17:42:02.452 11/09/2023]',0.3870143,-1.551729,31.94115,1.341672E-11,14.9831,16.80447,32.33,26.02272
'[17:42:02.460 11/09/2023]',2.377865,3.298645,12.83461,1.341672E-11,8.43581,10.77209,21.8772,42.05595
'[17:42:02.468 11/09/2023]',5.236896,5.212124,-12.84993,1.341672E-11,1.541909,0.3317335,16.32399,27.49789
'[17:42:02.476 11/09/2023]',-20.75082,6.746798,-1305.419,1.341672E-11,-308.0079,-380.8202,-810.8661,-961.819
'[17:42:02.484 11/09/2023]',-31.55583,-21.18731,-1185.601,1.341672E-11,-80.99952,-213.697,-832.8532,-780.106
'[17:42:02.492 11/09/2023]',4.218297,2.378413,-66.29067,1.341672E-11,97.79295,40.53171,-102.6271,-97.61155
'[17:42:02.500 11/09/2023]',10.81195,4.4001,222.0086,1.341672E-11,66.28024,73.05732,161.6574,204.3083
'[17:42:02.508 11/09/2023]',2.325604,-1.197697,101.7145,1.341672E-11,19.19655,25.80087,107.1202,89.39866
'[17:42:02.516 11/09/2023]',3.566359,3.277237,48.02269,1.341672E-11,37.88877,30.56966,-3.738622,-35.96392
'[17:42:02.524 11/09/2023]',9.020222,3.657756,306.3518,1.341672E-11,69.80753,89.10241,188.1241,235.5937
'[17:42:02.532 11/09/2023]',9.079255,0.6260046,366.138,1.341672E-11,23.84577,67.99963,252.1675,217.0874
'[17:42:02.540 11/09/2023]',-7.268996,-3.821794,63.09118,1.341672E-11,-61.06364,-29.39765,89.27409,61.12434
'[17:42:02.548 11/09/2023]',-14.00582,-7.336412,-397.2252,1.341672E-11,-98.63882,-113.3338,-273.7209,-292.1584
'[17:42:02.556 11/09/2023]',-15.23343,-4.912914,-514.0658,1.341672E-11,-54.18007,-113.6287,-362.4762,-345.663
'[17:42:02.564 11/09/2023]',1.957439,1.49313,-141.514,1.341672E-11,43.78668,12.56791,-130.1913,-112.0123
'[17:42:02.572 11/09/2023]',17.38451,9.052434,238.0065,1.341672E-11,81.67264,85.03917,127.3346,151.2488
'[17:42:02.580 11/09/2023]',8.103423,4.821419,412.7419,1.341672E-11,48.46109,80.41051,259.3923,275.7922
'[17:42:02.588 11/09/2023]',1.171049,1.722779,154.2106,1.341672E-11,-13.0424,22.82474,173.445,140.8556
'[17:42:02.596 11/09/2023]',-3.670249,-0.9097047,-103.4434,1.341672E-11,-43.81738,-34.28616,-69.34109,-56.66773
'[17:42:02.604 11/09/2023]',-7.938987,-0.1307904,-286.5681,1.341672E-11,-25.98862,-38.54798,-100.4527,54.39527
'[17:42:02.612 11/09/2023]',-0.7780465,0.7935055,-268.1337,1.341672E-11,7.295091,-8.261419,-80.57008,-44.59891
'[17:42:02.620 11/09/2023]',1.819328,-0.5402992,101.498,1.341672E-11,20.53999,17.05424,18.95893,71.66196
'[17:42:02.628 11/09/2023]',4.258281,1.888337,131.9411,1.341672E-11,18.08916,25.02243,76.52502,75.53191
'[17:42:02.636 11/09/2023]',1.399324,0.3437382,42.68587,1.341672E-11,3.438392,14.33362,96.46362,95.76159
'[17:42:02.644 11/09/2023]',-2.745873,-1.055738,-0.5981154,1.341672E-11,-4.75075,-2.05057,14.5256,-1.428991
'[17:42:02.652 11/09/2023]',2.310524,-0.486799,-19.63317,1.341672E-11,-3.980603,-0.9230336,-19.72958,-2.96666
'[17:42:02.660 11/09/2023]',-0.912581,0.1978289,13.42379,1.341672E-11,3.079193,6.381206,31.59766,36.96788
'[17:42:02.668 11/09/2023]',8.31828,1.588202,-1.628098,1.341672E-11,5.654696,8.628886,28.21346,20.97927
'[17:42:02.676 11/09/2023]',-5.249232,-0.6588227,8.057775,1.341672E-11,6.922942,4.763667,47.61406,32.20164
'[17:42:02.684 11/09/2023]',-0.5015889,-0.2733008,39.07517,1.341672E-11,5.494728,9.092777,46.41265,44.09869
'[17:42:02.692 11/09/2023]',-0.2603646,-0.7338345,1.648998,1.341672E-11,5.299583,4.754464,23.57629,26.62012
'[17:42:02.700 11/09/2023]',-1.388933,-0.6694083,10.69811,1.341672E-11,-2.250149,1.219468,3.111739,21.46702
'[17:42:02.708 11/09/2023]',0.3870545,0.3440355,52.12742,1.341672E-11,2.154697,10.02445,74.66122,71.95667
'[17:42:02.716 11/09/2023]',0.1370569,-0.6161703,3.855307,1.341672E-11,-6.371432,0.3991624,3.897732,4.448042
'[17:42:02.724 11/09/2023]',0.998849,0.5982771,-45.19737,1.341672E-11,-9.068458,-9.282334,-58.08775,-59.94502
'[17:42:02.732 11/09/2023]',1.717701,3.847044,-8.967452,1.341672E-11,2.647548,-0.1211917,-1.136039,12.94144
'[17:42:02.740 11/09/2023]',3.521833,2.30744,-18.08462,1.341672E-11,-1.630126,-6.265509,-35.48998,-21.45033
'[17:42:02.748 11/09/2023]',-2.439407,0.4793086,-6.475845,1.341672E-11,1.654453,-4.47949,-22.54986,-18.46068
'[17:42:02.756 11/09/2023]',-0.2913537,-1.996867,-10.75325,1.341672E-11,0.7756379,-3.232221,-39.53286,-44.36679
'[17:42:02.764 11/09/2023]',1.518716,-0.8993378,0.3587082,1.341672E-11,-4.976531,-8.419394,-9.967208,-19.55873
'[17:42:02.772 11/09/2023]',0.2175827,0.6301175,39.01405,1.341672E-11,11.86313,19.89191,51.8437,60.75965
'[17:42:02.780 11/09/2023]',-0.3872207,-0.2872723,-28.8878,1.341672E-11,-1.9434,-7.068351,-9.003258,38.69055
'[17:42:02.788 11/09/2023]',-1.136332,-0.5847595,-12.8384,1.341672E-11,-0.5793907,-4.200014,-6.559647,-43.1737
'[17:42:02.796 11/09/2023]',2.906471,-4.531148,-0.4145538,1.341672E-11,1.330014,0.4906956,-13.06065,11.73733
'[17:42:02.804 11/09/2023]',2.216754,2.269114,4.314335,1.341672E-11,-1.802951,-2.568667,22.88699,13.37009
'[17:42:02.812 11/09/2023]',-4.728185,-1.58789,-4.077417,1.341672E-11,1.248434,-2.253006,-8.527585,4.124387
'[17:42:02.820 11/09/2023]',-1.662617,-1.034707,-57.05545,1.341672E-11,-6.189363,-17.46518,-76.75195,-88.07342
'[17:42:02.828 11/09/2023]',2.391362,2.044164,14.25707,1.341672E-11,12.73533,10.27665,23.93625,14.5575
'[17:42:02.836 11/09/2023]',-4.209334,-5.967378,-52.59839,1.341672E-11,-8.479165,-15.75362,-78.79197,-67.47379
'[17:42:02.844 11/09/2023]',-1.483604,3.311811,18.62758,1.341672E-11,9.435295,6.661417,32.6234,29.73542
'[17:42:02.852 11/09/2023]',0.8525078,-1.091812,-10.98037,1.341672E-11,0.5125611,0.5999061,-1.090024,0.246889
'[17:42:02.860 11/09/2023]',-0.2956867,-0.3225425,33.40155,1.341672E-11,2.130497,9.572478,45.32268,33.00868
'[17:42:02.868 11/09/2023]',-5.394185,0.4903592,-7.973798,1.341672E-11,-5.084592,-0.732699,-15.49184,-19.39157
'[17:42:02.876 11/09/2023]',1.738409,1.324203,23.42407,1.341672E-11,2.385067,-0.6418534,34.21601,43.01181
'[17:42:02.884 11/09/2023]',2.524394,0.03998328,8.330835,1.341672E-11,-2.255828,4.010987,7.432445,12.53563
'[17:42:02.892 11/09/2023]',-1.955931,0.8094642,-33.76687,1.341672E-11,0.9844044,0.1331858,-23.3684,-19.67766
'[17:42:02.900 11/09/2023]',0.1458795,-0.048964,-2.00156,1.341672E-11,-6.935166,-1.16309,2.180601,3.833597
'[17:42:02.908 11/09/2023]',1.724002,-0.0410918,41.60537,1.341672E-11,-1.685432,8.881496,48.45079,43.73405
'[17:42:02.916 11/09/2023]',-1.9019,-1.168134,5.622495,1.341672E-11,0.8479137,-0.7343584,9.629614,12.39877
'[17:42:02.924 11/09/2023]',2.047976,1.183033,4.825634,1.341672E-11,6.585758,0.2121967,-2.003674,6.050088
'[17:42:02.932 11/09/2023]',-1.140811,0.9129746,-2.669994,1.341672E-11,-4.049148,-0.007176063,-9.216957,3.951538
'[17:42:02.940 11/09/2023]',-2.223036,-0.1248169,7.516871,1.341672E-11,3.86273,-1.88895,7.295065,18.22765
'[17:42:02.948 11/09/2023]',0.3561719,-1.644449,-27.4266,1.341672E-11,-7.590085,-2.609156,-22.43605,-29.84639
'[17:42:02.956 11/09/2023]',1.40293,0.04173584,5.332765,1.341672E-11,9.441602,4.353193,5.205029,12.52996
'[17:42:02.964 11/09/2023]',1.324064,2.068709,-3.042197,1.341672E-11,-5.501107,-2.231038,4.201222,4.682976
'[17:42:02.972 11/09/2023]',2.667151,1.926621,6.740135,1.341672E-11,4.924384,4.696216,6.605203,2.713798
'[17:42:02.980 11/09/2023]',-0.529579,-1.737576,18.60927,1.341672E-11,4.84424,5.391941,24.01517,26.44971
'[17:42:02.988 11/09/2023]',-7.521299,-1.618987,25.04689,1.341672E-11,2.192339,3.445393,44.90723,29.61444
'[17:42:02.996 11/09/2023]',3.826274,-0.5011722,6.508011,1.341672E-11,8.846974,6.033419,35.22615,43.32352
'[17:42:03.004 11/09/2023]',-1.590849,-1.923627,5.377333,1.341672E-11,2.933429,3.955695,12.7862,25.19237
'[17:42:03.012 11/09/2023]',0.262099,0.8106812,11.902,1.341672E-11,1.9765,0.5276818,15.96212,22.42833
'[17:42:03.020 11/09/2023]',0.189778,2.474732,-9.787856,1.341672E-11,-10.64684,-9.895429,-12.33965,-5.64445
'[17:42:03.028 11/09/2023]',0.8293411,-2.237058,-0.6633808,1.341672E-11,1.778018,6.72005,16.9247,14.01607
'[17:42:03.036 11/09/2023]',1.198258,1.356182,-7.88647,1.341672E-11,-0.9595312,-1.241347,-17.6975,-4.513812
'[17:42:03.044 11/09/2023]',-0.3783327,-1.051982,34.75036,1.341672E-11,12.70152,15.4362,45.52748,53.79781
'[17:42:03.052 11/09/2023]',-0.9265884,-0.7059427,-5.198453,1.341672E-11,2.836009,2.452029,-7.849803,-4.784279
'[17:42:03.060 11/09/2023]',1.094077,1.66658,-1.685874,1.341672E-11,2.772758,3.272863,-7.400326,-13.23084
'[17:42:03.068 11/09/2023]',-4.142604,-2.202969,-11.49118,1.341672E-11,0.3959884,3.701368,-25.85827,-29.59335
'[17:42:03.076 11/09/2023]',4.521605,2.863569,3.760049,1.341672E-11,-4.088488,0.6960817,5.669748,2.600969
'[17:42:03.084 11/09/2023]',-2.859906,-2.520223,-29.97397,1.341672E-11,-5.730227,-4.325378,-41.76052,-44.55063
'[17:42:03.092 11/09/2023]',-1.681336,-0.4629439,-0.005129053,1.341672E-11,-2.380885,-0.4569356,-1.561995,-4.14618
'[17:42:03.100 11/09/2023]',-4.03508,1.490373,28.33155,1.341672E-11,5.933978,10.142,49.03179,37.23843
'[17:42:03.108 11/09/2023]',-4.51794,-5.069621,-4.86201,1.341672E-11,-5.531033,-5.188254,11.63373,7.173693
'[17:42:03.116 11/09/2023]',-2.610532,-1.007543,-47.10131,1.341672E-11,-12.46725,-16.98917,-86.20249,-97.76063
'[17:42:03.124 11/09/2023]',-1.029743,-0.3298067,7.36525,1.341672E-11,2.403622,4.872898,20.40563,11.09328
'[17:42:03.132 11/09/2023]',-3.930568,-5.174391,8.108319,1.341672E-11,-5.581702,-0.3527483,8.344637,-2.705355
'[17:42:03.140 11/09/2023]',1.883036,-0.4584262,-34.84106,1.341672E-11,-0.9289188,-4.889842,-28.51139,-28.83319
'[17:42:03.148 11/09/2023]',-1.462894,-0.03280114,-26.12679,1.341672E-11,-5.7424,-6.569774,-25.51159,-11.71094
'[17:42:03.156 11/09/2023]',-1.425069,-1.107963,-12.88393,1.341672E-11,1.114924,-1.949953,-18.01445,-26.71404
'[17:42:03.164 11/09/2023]',10.94158,7.479385,24.27347,1.341672E-11,-1.333294,1.840497,35.0284,41.59209
'[17:42:03.172 11/09/2023]',-0.874989,12.2241,21.35855,1.341672E-11,11.64093,19.2024,58.12752,120.0744
'[17:42:03.180 11/09/2023]',-2.703995,-3.896157,-42.80241,1.341672E-11,-20.87432,-25.33495,-38.86676,-71.79987
'[17:42:03.188 11/09/2023]',-2.091777,-0.6540071,-55.28952,1.341672E-11,-8.664759,-7.231886,-37.52597,-32.80961
'[17:42:03.196 11/09/2023]',3.234218,3.588979,24.44009,1.341672E-11,9.549431,12.67231,39.38786,51.10109
'[17:42:03.204 11/09/2023]',-2.200549,-1.440135,-28.99413,1.341672E-11,0.2414778,-9.769434,-59.72934,-46.39491
'[17:42:03.212 11/09/2023]',-1.213405,-1.47906,12.49677,1.341672E-11,-4.692211,-1.76661,-0.7171476,-10.16768
'[17:42:03.220 11/09/2023]',3.666014,1.432954,-2.974795,1.341672E-11,2.271496,3.362748,42.51459,59.14497
'[17:42:03.228 11/09/2023]',0.4795048,1.331317,0.4673953,1.341672E-11,4.887973,0.05496603,4.673949,-13.25078
'[17:42:03.236 11/09/2023]',-2.682468,-1.454159,51.63215,1.341672E-11,4.246992,10.485,67.28679,71.33056
'[17:42:03.244 11/09/2023]',0.6909661,-0.04338415,46.88972,1.341672E-11,4.939312,4.528919,43.34465,39.71783
'[17:42:03.252 11/09/2023]',-1.629928,-1.92209,-20.30966,1.341672E-11,-8.43489,-5.155999,-10.57986,-17.12325
'[17:42:03.260 11/09/2023]',-1.317768,2.141711,-3.43921,1.341672E-11,-6.536443,-1.289737,-11.85715,-10.30506
'[17:42:03.268 11/09/2023]',-1.211485,-0.3373061,-48.17627,1.341672E-11,-7.167853,-8.285136,-35.90336,-35.05737
'[17:42:03.276 11/09/2023]',0.7068874,0.1464283,32.87811,1.341672E-11,7.993798,11.65815,22.65859,33.60186
'[17:42:03.284 11/09/2023]',-0.3119607,0.03961308,13.11227,1.341672E-11,4.537944,3.272228,20.42876,22.46533
'[17:42:03.292 11/09/2023]',0.6315705,1.084002,-4.536407,1.341672E-11,-4.317251,-6.830635,-23.94205,-32.41847
'[17:42:03.300 11/09/2023]',2.537388,2.205799,19.0662,1.341672E-11,-5.442173,-0.3495253,40.81704,24.25204
'[17:42:03.308 11/09/2023]',-1.923483,-1.693991,-15.32337,1.341672E-11,2.979116,-0.003729809,-27.71215,-16.19214
'[17:42:03.316 11/09/2023]',-0.4267831,-1.949674,8.745245,1.341672E-11,0.8044245,0.8220403,9.435111,2.664349
'[17:42:03.324 11/09/2023]',1.417785,2.842488,10.54788,1.341672E-11,2.816614,0.7696661,-5.376505,8.805413
'[17:42:03.332 11/09/2023]',-0.7769166,1.072534,-41.1146,1.341672E-11,-7.866117,-9.715276,-57.05376,-57.07592
'[17:42:03.340 11/09/2023]',2.469446,3.023675,-29.57115,1.341672E-11,-2.885329,-5.571368,-25.68186,-41.90864
'[17:42:03.348 11/09/2023]',0.9269561,0.5669855,33.5517,1.341672E-11,6.17252,5.85717,52.57113,46.80803
'[17:42:03.356 11/09/2023]',-0.4746687,-1.915928,-9.256832,1.341672E-11,-0.2805146,-2.021803,5.437315,13.94327
'[17:42:03.364 11/09/2023]',-0.06605458,0.4790167,-31.79804,1.341672E-11,-4.07337,-5.966236,-23.61945,-22.26705
'[17:42:03.372 11/09/2023]',-0.6603633,-2.392047,-3.394889,1.341672E-11,-0.8837281,-1.16494,-17.40715,-12.33687
'[17:42:03.380 11/09/2023]',2.754474,1.750963,17.23286,1.341672E-11,-1.92848,4.313898,21.14705,14.65058
'[17:42:03.388 11/09/2023]',1.760702,-1.10343,50.27934,1.341672E-11,13.76734,19.72715,63.29941,86.53831
'[17:42:03.396 11/09/2023]',-3.607892,-3.330288,-24.49434,1.341672E-11,0.2066714,-6.546809,-44.18983,-45.35324
'[17:42:03.404 11/09/2023]',-2.153778,0.673973,-13.50202,1.341672E-11,-1.335603,0.165231,5.299523,7.346277
'[17:42:03.412 11/09/2023]',0.7034312,-0.192749,-7.277036,1.341672E-11,-5.70999,-5.128788,-29.29708,-39.72725
'[17:42:03.420 11/09/2023]',-0.7774757,0.1163112,14.25296,1.341672E-11,2.814615,0.6943117,10.85618,-2.490987
'[17:42:03.428 11/09/2023]',2.743235,2.580344,46.62575,1.341672E-11,3.162027,9.931838,50.54397,35.80824
'[17:42:03.436 11/09/2023]',-1.277856,0.4189302,-5.086369,1.341672E-11,-5.079129,3.576131,-6.657435,-7.088483
'[17:42:03.444 11/09/2023]',-6.13247,-2.947988,-31.09926,1.341672E-11,1.150767,-5.075396,-26.45849,-5.008446
'[17:42:03.452 11/09/2023]',-0.3812415,-2.133654,35.90701,1.341672E-11,4.358522,13.61046,78.21679,72.55222
'[17:42:03.460 11/09/2023]',1.997161,-0.5300226,18.23096,1.341672E-11,3.796157,10.46604,25.62663,14.24514
'[17:42:03.468 11/09/2023]',1.17063,1.749052,3.835076,1.341672E-11,-0.8308519,-0.8111888,-0.91337,-0.4301857
'[17:42:03.476 11/09/2023]',-2.045163,1.205134,-0.2008813,1.341672E-11,-0.6380379,1.661193,-2.334777,8.997067
'[17:42:03.484 11/09/2023]',0.2284823,-1.240196,-4.88287,1.341672E-11,-10.39015,-7.771013,-31.38696,-35.25433
'[17:42:03.492 11/09/2023]',-0.484104,1.270015,31.72683,1.341672E-11,-2.511761,5.269059,42.01503,28.97275
'[17:42:03.500 11/09/2023]',-4.651771,-3.766654,-0.07165588,1.341672E-11,2.70338,6.191903,8.430799,18.11115
'[17:42:03.508 11/09/2023]',-1.426636,0.2167929,3.541653,1.341672E-11,1.212136,-1.711285,-27.43864,-7.721465
'[17:42:03.516 11/09/2023]',-1.536256,-6.683353,16.48512,1.341672E-11,5.620541,2.664989,41.78867,51.19105
'[17:42:03.524 11/09/2023]',-1.16661,-0.63676,-2.829759,1.341672E-11,7.434514,5.943194,-12.039,-22.53375
'[17:42:03.532 11/09/2023]',0.2052068,0.8584785,10.48535,1.341672E-11,-2.467119,-2.467737,22.6977,11.26268
'[17:42:03.540 11/09/2023]',5.3626,3.961321,-4.612531,1.341672E-11,7.4599,7.93097,-3.777787,-4.832884
'[17:42:03.548 11/09/2023]',-1.356227,-0.4848126,0.04769447,1.341672E-11,-2.590779,1.769152,17.39989,37.89846
'[17:42:03.556 11/09/2023]',-0.9538144,-0.8744859,10.31952,1.341672E-11,6.545671,2.80741,22.56697,12.96597
'[17:42:03.564 11/09/2023]',-0.3648763,0.9871443,17.63119,1.341672E-11,6.625679,5.141925,28.32666,47.65829
'[17:42:03.572 11/09/2023]',-1.142264,0.8994015,14.77728,1.341672E-11,4.107952,3.312399,31.89123,36.56919
'[17:42:03.580 11/09/2023]',5.532435,1.928443,12.40925,1.341672E-11,0.7972831,0.140903,25.57864,18.62867
'[17:42:03.588 11/09/2023]',-0.3186965,0.4502366,-11.5694,1.341672E-11,-4.923512,-7.36195,-4.950658,-5.855219
'[17:42:03.596 11/09/2023]',-3.417553,1.134251,6.995444,1.341672E-11,3.064259,1.610189,-4.861284,2.371471
'[17:42:03.604 11/09/2023]',-1.491454,-1.116665,-2.893887,1.341672E-11,-4.366212,-5.227513,0.5949659,-6.382843
'[17:42:03.612 11/09/2023]',-3.470382,0.9028425,-13.76646,1.341672E-11,-2.178348,-5.198162,-26.49892,-27.85339
'[17:42:03.620 11/09/2023]',-2.55175,-2.347692,14.70721,1.341672E-11,1.623905,6.144926,49.06119,58.46696
'[17:42:03.628 11/09/2023]',0.8568372,3.112562,-28.7193,1.341672E-11,-4.417009,-9.25904,-49.95765,-42.36205
'[17:42:03.636 11/09/2023]',1.475777,-0.1167017,8.488688,1.341672E-11,-1.762582,0.07158537,12.77105,3.828174
'[17:42:03.644 11/09/2023]',-0.3694291,-1.49427,21.32845,1.341672E-11,0.8087668,9.643146,33.24548,36.27314
'[17:42:03.652 11/09/2023]',-0.7892942,-0.07579492,5.992568,1.341672E-11,1.010139,0.2891246,-3.388386,-11.09522
'[17:42:03.660 11/09/2023]',-0.6524512,-0.4058064,-17.45271,1.341672E-11,-5.420861,-8.011028,-13.95995,-13.04867
'[17:42:03.668 11/09/2023]',-0.3466692,-0.574419,12.33187,1.341672E-11,1.114689,1.336317,13.58367,9.41184
'[17:42:03.676 11/09/2023]',0.7844591,3.579895,18.5097,1.341672E-11,6.078733,4.550406,12.03042,21.94611
'[17:42:03.684 11/09/2023]',-2.582814,-1.983956,-38.15675,1.341672E-11,-13.96979,-15.89628,-57.73084,-42.43941
'[17:42:03.692 11/09/2023]',2.371466,-2.097421,8.345535,1.341672E-11,5.34854,2.594552,29.74701,39.59808
'[17:42:03.700 11/09/2023]',2.631333,1.099255,-2.544248,1.341672E-11,-4.052996,-5.258771,-14.34756,-18.17392
'[17:42:03.708 11/09/2023]',-2.41762,-1.587922,1.788086,1.341672E-11,-0.9294618,1.449579,-6.170744,-0.7978907
'[17:42:03.716 11/09/2023]',1.84447,0.3474197,2.368273,1.341672E-11,0.4343069,-0.1729321,-11.36315,0.6829284
'[17:42:03.724 11/09/2023]',-3.564363,-4.041361,22.76111,1.341672E-11,7.048631,7.318799,42.02721,37.11728
'[17:42:03.732 11/09/2023]',-0.9674677,-0.2216427,-2.28376,1.341672E-11,-2.565489,-1.30975,4.6747,13.33362
'[17:42:03.740 11/09/2023]',-0.362603,-0.2490267,35.83292,1.341672E-11,8.881983,4.522239,54.10187,38.55275
'[17:42:03.748 11/09/2023]',1.231716,2.216469,-20.98946,1.341672E-11,-2.236341,-6.146162,-34.48202,-21.69619
'[17:42:03.756 11/09/2023]',1.9961,-0.6146355,-12.86788,1.341672E-11,2.236485,-3.000807,-19.66852,-6.095159
'[17:42:03.764 11/09/2023]',2.252091,-1.19106,-46.80667,1.341672E-11,-7.62081,-16.55105,-58.1871,-65.98394
'[17:42:03.772 11/09/2023]',-2.643534,0.4147357,0.7003511,1.341672E-11,0.5822445,2.564917,-4.444578,-2.979343
'[17:42:03.780 11/09/2023]',-3.01129,-2.053596,-6.593745,1.341672E-11,-2.410537,-4.022448,-0.03434045,4.007108
'[17:42:03.788 11/09/2023]',-3.813997,-1.471799,7.353154,1.341672E-11,-2.077079,0.564693,20.74645,19.12441
'[17:42:03.796 11/09/2023]',-0.3867013,0.1308272,-0.02633784,1.341672E-11,-4.544092,-1.501335,26.10371,11.47988
'[17:42:03.804 11/09/2023]',1.559174,1.163612,-11.0054,1.341672E-11,-3.244504,-2.955081,-25.11804,-17.78842
'[17:42:03.812 11/09/2023]',-1.748964,-0.2109812,1.5509,1.341672E-11,4.976853,5.128046,-19.54709,-15.044
'[17:42:03.820 11/09/2023]',-0.145913,1.414289,-12.19868,1.341672E-11,-1.342733,-0.7150364,-2.368242,0.5997042
'[17:42:03.828 11/09/2023]',-0.7969567,1.523524,1.819906,1.341672E-11,6.281465,0.2342507,10.26872,56.21754
'[17:42:03.836 11/09/2023]',-0.705228,-0.7374302,16.09082,1.341672E-11,2.09085,6.036066,5.609238,-4.92578
'[17:42:03.844 11/09/2023]',-10.19221,-5.827093,-5.959597,1.341672E-11,5.329072,3.98869,2.999451,18.59169
'[17:42:03.852 11/09/2023]',3.989926,1.965865,18.15191,1.341672E-11,10.18595,6.32769,37.59538,37.39014
'[17:42:03.860 11/09/2023]',0.4920202,-1.424964,20.40344,1.341672E-11,3.712236,2.221776,5.122189,-5.282908
'[17:42:03.868 11/09/2023]',0.1631204,0.3830881,-3.468762,1.341672E-11,-4.273918,-1.34671,-23.80699,-31.49279
'[17:42:03.876 11/09/2023]',1.760095,4.53969,0.07490648,1.341672E-11,7.604736,2.422203,-15.66663,-13.05627
'[17:42:03.884 11/09/2023]',-2.988016,0.5035057,7.222741,1.341672E-11,9.049272,5.725299,33.32699,34.74667
'[17:42:03.892 11/09/2023]',-3.716576,-1.44517,-16.24452,1.341672E-11,-10.40197,-8.771234,-17.86131,-4.09789
'[17:42:03.900 11/09/2023]',1.558343,-2.475271,11.87075,1.341672E-11,2.232253,7.463087,32.53139,28.80631
'[17:42:03.908 11/09/2023]',2.516382,2.744141,22.35982,1.341672E-11,5.935727,4.436076,17.43233,30.96112
'[17:42:03.916 11/09/2023]',88.87787,45.01143,2045.287,1.341672E-11,565.9584,649.4025,1301.382,1567.409
'[17:42:03.924 11/09/2023]',49.98418,22.28244,2134.247,1.341672E-11,215.2274,450.9942,1486.377,1453.934
'[17:42:03.932 11/09/2023]',-1.479424,-0.5039331,420.176,1.341672E-11,-103.6895,7.641489,369.8789,279.3159
'[17:42:03.940 11/09/2023]',-13.29114,-7.546504,-316.8646,1.341672E-11,-111.3604,-118.2135,-217.3845,-244.3489
'[17:42:03.948 11/09/2023]',-2.191785,-0.9667209,-90.68243,1.341672E-11,-26.40264,-29.35561,-34.14025,-53.64647
'[17:42:03.956 11/09/2023]',-4.921457,-0.6384525,-47.49769,1.341672E-11,-52.58644,-38.076,-13.58161,-33.50739
'[17:42:03.964 11/09/2023]',-15.35261,-6.355778,-448.9332,1.341672E-11,-120.0251,-140.091,-278.9929,-320.7438
'[17:42:03.972 11/09/2023]',-20.42949,-11.1042,-701.7747,1.341672E-11,-77.67331,-149.2234,-449.5856,-479.1533
'[17:42:03.980 11/09/2023]',-0.291738,-0.7978351,-315.5031,1.341672E-11,60.82104,-11.92041,-265.6459,-201.4502
'[17:42:03.988 11/09/2023]',20.92991,9.811585,497.4745,1.341672E-11,168.7114,173.9345,311.1767,361.6938
'[17:42:03.996 11/09/2023]',18.82902,9.869227,825.8755,1.341672E-11,108.1658,192.9683,570.3767,579.1728
'[17:42:04.004 11/09/2023]',4.851066,-1.783978,402.2465,1.341672E-11,-31.41911,44.33044,324.8083,274.7759
'[17:42:04.012 11/09/2023]',-13.83014,-5.293068,-308.7603,1.341672E-11,-128.7444,-121.473,-173.0863,-198.2445
'[17:42:04.020 11/09/2023]',-16.66015,-9.565845,-604.3634,1.341672E-11,-102.8374,-150.4832,-419.6263,-427.4095
'[17:42:04.028 11/09/2023]',2.114557,0.5048364,-333.5036,1.341672E-11,16.37102,-45.87223,-230.7406,-205.5726
'[17:42:04.036 11/09/2023]',7.041816,1.366292,157.4107,1.341672E-11,77.74998,72.00761,97.40128,154.7525
'[17:42:04.044 11/09/2023]',11.18221,2.434312,347.8721,1.341672E-11,67.26552,92.38367,225.9898,235.2137
'[17:42:04.052 11/09/2023]',2.510699,0.7065098,255.8308,1.341672E-11,9.05746,47.25062,212.8022,206.845
'[17:42:04.060 11/09/2023]',-5.827415,-1.687768,-27.30403,1.341672E-11,-34.8816,-18.92139,12.24475,-9.63036
'[17:42:04.068 11/09/2023]',-4.050894,-2.295844,-163.5226,1.341672E-11,-34.45463,-46.49115,-107.4672,-102.1411
'[17:42:04.076 11/09/2023]',-0.2554022,2.258859,-109.7333,1.341672E-11,-2.040542,-20.83964,-85.44419,-91.01837
'[17:42:04.084 11/09/2023]',-1.53824,1.445293,-40.04809,1.341672E-11,1.717846,-8.296529,-56.74288,-45.99887
'[17:42:04.092 11/09/2023]',1.562632,0.247479,32.39273,1.341672E-11,8.666993,7.209082,34.47359,41.58401
'[17:42:04.100 11/09/2023]',-3.974853,-0.873908,8.523559,1.341672E-11,-6.557554,3.593261,17.77825,-8.912556
'[17:42:04.108 11/09/2023]',-1.390325,0.3564068,22.80536,1.341672E-11,4.741538,0.1501952,19.5661,11.82646
'[17:42:04.116 11/09/2023]',2.676192,-0.2639206,30.31618,1.341672E-11,10.22483,7.526436,26.56235,21.96067
'[17:42:04.124 11/09/2023]',-2.831526,-0.8278818,33.47901,1.341672E-11,5.873539,4.506265,28.07611,17.17212
'[17:42:04.132 11/09/2023]',4.441594,5.1416,-13.81986,1.341672E-11,-5.577852,2.792692,-22.22201,-16.32879
'[17:42:04.140 11/09/2023]',-2.551112,-2.870486,-18.62434,1.341672E-11,-3.331851,-2.73406,32.00451,27.67248
'[17:42:04.148 11/09/2023]',0.3494706,1.320352,-12.95074,1.341672E-11,0.08294673,-0.9741815,-11.55316,-8.03064
'[17:42:04.156 11/09/2023]',0.8199769,-1.013069,-41.51472,1.341672E-11,4.154211,-14.02091,-57.95808,-49.36867
'[17:42:04.164 11/09/2023]',0.1905993,-0.2043967,36.96153,1.341672E-11,9.164442,16.40721,49.03065,67.24955
'[17:42:04.172 11/09/2023]',-1.798007,0.8158246,31.18218,1.341672E-11,-0.9267856,6.216843,1.333957,-18.35452
'[17:42:04.180 11/09/2023]',-1.337865,2.209723,39.1618,1.341672E-11,-3.794595,0.8655056,25.19708,17.30237
'[17:42:04.188 11/09/2023]',-1.237082,1.21119,-56.54202,1.341672E-11,-16.21318,-14.79111,-72.02447,-82.07105
'[17:42:04.196 11/09/2023]',2.232081,-3.44333,-2.272577,1.341672E-11,4.039209,2.740303,21.82572,21.75052
'[17:42:04.204 11/09/2023]',1.74623,4.889189,6.3682,1.341672E-11,11.40869,6.501953,-2.403858,-3.015162
'[17:42:04.212 11/09/2023]',0.8485849,-0.3211668,1.981487,1.341672E-11,2.004334,-2.165589,24.07296,23.88586
'[17:42:04.220 11/09/2023]',0.6275105,-1.228946,7.293899,1.341672E-11,-4.90143,0.5016636,12.81471,-5.110977
'[17:42:04.228 11/09/2023]',0.586621,0.6827302,-4.423442,1.341672E-11,-3.008099,-7.115137,-15.56763,-20.23843
'[17:42:04.236 11/09/2023]',1.074212,1.916775,12.63905,1.341672E-11,8.546095,10.47266,32.96798,28.1333
'[17:42:04.244 11/09/2023]',-0.7122878,-0.1195682,9.52153,1.341672E-11,12.83739,10.85315,19.88295,16.58641
'[17:42:04.252 11/09/2023]',-6.870255,0.6606526,-18.48594,1.341672E-11,-3.801017,-2.473979,-25.54663,-26.02416
'[17:42:04.260 11/09/2023]',-3.752637,-0.4456287,-2.090144,1.341672E-11,-0.1847176,-4.172882,-14.09902,-2.316892
'[17:42:04.268 11/09/2023]',-73.82698,-32.02299,-3084.513,1.341672E-11,-402.9886,-712.3757,-2032.031,-2064.559
'[17:42:04.276 11/09/2023]',-10.06289,-8.166703,-1135.059,1.341672E-11,152.1002,-92.59539,-899.1981,-751.7527
'[17:42:04.284 11/09/2023]',29.24072,13.14401,631.275,1.341672E-11,263.2255,247.4786,333.5358,429.6041
'[17:42:04.292 11/09/2023]',19.36143,10.16134,676.2977,1.341672E-11,113.7936,169.8394,463.6912,487.9951
'[17:42:04.300 11/09/2023]',6.670535,3.990451,127.4014,1.341672E-11,14.52536,26.38631,68.11317,77.51903
'[17:42:04.308 11/09/2023]',14.94646,6.998398,337.3298,1.341672E-11,90.89128,107.2363,241.7941,267.8251
'[17:42:04.316 11/09/2023]',13.92624,6.38904,698.7293,1.341672E-11,90.42831,159.5554,506.6251,524.0522
'[17:42:04.324 11/09/2023]',3.417639,1.195479,402.8344,1.341672E-11,-44.24596,34.10427,292.7831,259.7848
'[17:42:04.332 11/09/2023]',-22.43064,-8.499578,-412.1592,1.341672E-11,-177.8439,-165.9214,-216.0217,-297.2223
'[17:42:04.340 11/09/2023]',-29.02279,-13.13363,-993.4725,1.341672E-11,-167.194,-252.6366,-695.761,-706.4752
'[17:42:04.348 11/09/2023]',-15.48593,-6.643541,-595.3012,1.341672E-11,19.39098,-83.49447,-409.4554,-384.7321
'[17:42:04.356 11/09/2023]',16.10246,7.168422,242.8801,1.341672E-11,143.4536,120.5402,123.4077,187.3678
'[17:42:04.364 11/09/2023]',22.87226,9.402516,762.4039,1.341672E-11,148.6974,207.2217,537.6645,575.9793
'[17:42:04.372 11/09/2023]',10.68262,7.129993,528.3998,1.341672E-11,18.47852,87.06895,349.6616,331.1637
'[17:42:04.380 11/09/2023]',-12.74574,-5.153631,-98.73279,1.341672E-11,-98.48856,-77.27269,-70.22001,-123.536
'[17:42:04.388 11/09/2023]',-13.46893,-6.359721,-464.4368,1.341672E-11,-95.77505,-122.1124,-299.1988,-326.3492
'[17:42:04.396 11/09/2023]',-8.651272,-4.902436,-352.1603,1.341672E-11,-23.71165,-73.71479,-249.7873,-232.8299
'[17:42:04.404 11/09/2023]',2.61985,0.625426,-31.07626,1.341672E-11,40.02128,13.35874,-59.11601,-36.51954
'[17:42:04.412 11/09/2023]',11.09986,8.140232,240.6382,1.341672E-11,56.60078,67.15626,182.8593,204.7847
'[17:42:04.420 11/09/2023]',2.018412,-0.7363569,157.8151,1.341672E-11,7.559815,31.04762,97.20187,93.25235
'[17:42:04.428 11/09/2023]',-3.411939,-1.674878,6.790684,1.341672E-11,-15.94615,-7.693926,6.596292,4.178217
'[17:42:04.436 11/09/2023]',-4.424209,0.1343776,-74.46544,1.341672E-11,-21.34447,-24.62687,-47.46957,-72.03671
'[17:42:04.444 11/09/2023]',-7.959403,2.1817,-77.61221,1.341672E-11,-12.44449,-13.93946,-54.94393,-46.65094
'[17:42:04.452 11/09/2023]',-0.8968993,-3.391253,-1.153061,1.341672E-11,0.8365377,-0.1950841,11.01058,0.5690776
'[17:42:04.460 11/09/2023]',2.834945,1.449823,-16.98649,1.341672E-11,5.830715,3.751658,-14.85795,-20.3036
'[17:42:04.468 11/09/2023]',-2.67004,-2.70599,-11.40483,1.341672E-11,-5.231022,-7.769689,-7.1271,-8.594142
'[17:42:04.476 11/09/2023]',-0.2959983,-2.834576,-20.06937,1.341672E-11,-2.336595,-2.86086,-30.17735,-31.07393
'[17:42:04.484 11/09/2023]',1.402255,-0.1561036,-1.71454,1.341672E-11,13.27723,11.87546,-8.433833,4.292387
'[17:42:04.492 11/09/2023]',0.9816941,0.3225844,42.47447,1.341672E-11,10.81722,16.00361,23.05581,21.48976
'[17:42:04.500 11/09/2023]',0.5955985,0.2065378,44.74953,1.341672E-11,-3.018028,8.687623,54.67649,66.7258
'[17:42:04.508 11/09/2023]',-1.535909,-1.113623,21.80953,1.341672E-11,3.385094,5.553721,45.57319,48.43888
'[17:42:04.516 11/09/2023]',-8.914548,-2.488181,-26.19395,1.341672E-11,2.439626,-1.721651,-2.295123,-8.172307
'[17:42:04.524 11/09/2023]',0.6226751,2.739545,-22.66766,1.341672E-11,1.540725,-5.934219,-6.498042,-4.316541
'[17:42:04.532 11/09/2023]',-0.8332767,-2.156723,22.64931,1.341672E-11,1.7694,-1.599164,8.030135,0.811799
'[17:42:04.540 11/09/2023]',1.739751,2.419706,33.83792,1.341672E-11,0.1126453,6.890098,33.2022,22.362
'[17:42:04.548 11/09/2023]',0.8114516,-0.3754668,-13.69645,1.341672E-11,-8.094303,-7.960762,-15.70686,-24.48613
'[17:42:04.556 11/09/2023]',-3.722054,-1.004715,11.54417,1.341672E-11,-6.565814,-2.758533,8.501436,4.734583
'[17:42:04.564 11/09/2023]',-1.785432,1.150518,-7.467835,1.341672E-11,2.310546,-0.2345401,-5.078091,-4.729392
'[17:42:04.572 11/09/2023]',0.6703262,-1.836374,5.667642,1.341672E-11,0.9714962,2.640631,21.78996,11.49876
'[17:42:04.580 11/09/2023]',-3.443122,-2.275728,-1.409008,1.341672E-11,2.817246,1.234,11.14049,20.31552
'[17:42:04.588 11/09/2023]',-0.7305015,0.4224207,-18.21869,1.341672E-11,1.107972,4.194979,-2.343739,1.441203
'[17:42:04.596 11/09/2023]',-62.90998,-26.92603,-2937.99,1.341672E-11,-364.2902,-666.7,-1986.932,-1956.291
'[17:42:04.604 11/09/2023]',-2.69021,-5.553711,-957.848,1.341672E-11,173.5565,-51.9915,-778.153,-655.2138
'[17:42:04.612 11/09/2023]',37.12457,16.13329,688.41,1.341672E-11,258.4966,256.7442,399.1936,481.463
'[17:42:04.620 11/09/2023]',19.21054,8.978743,605.7305,1.341672E-11,94.81857,150.1482,428.0311,441.9257
'[17:42:04.628 11/09/2023]',7.871534,4.081609,164.9581,1.341672E-11,19.76919,31.45562,124.1054,124.0023
'[17:42:04.636 11/09/2023]',10.42189,3.127558,295.3051,1.341672E-11,70.53926,83.20311,189.1478,218.2579
'[17:42:04.644 11/09/2023]',18.95824,11.65912,618.4874,1.341672E-11,73.47941,138.2203,421.9306,422.5828
'[17:42:04.652 11/09/2023]',1.803711,1.66502,358.1631,1.341672E-11,-46.4437,28.3425,291.5111,255.386
'[17:42:04.660 11/09/2023]',-21.07448,-9.472643,-425.6844,1.341672E-11,-162.2208,-157.0452,-253.2381,-299.5338
'[17:42:04.668 11/09/2023]',-24.15783,-9.779255,-894.0029,1.341672E-11,-134.7797,-222.8571,-609.8375,-637.3799
'[17:42:04.676 11/09/2023]',-8.907794,-4.214886,-545.8976,1.341672E-11,21.4009,-73.75048,-422.8005,-389.1029
'[17:42:04.684 11/09/2023]',11.97647,4.819222,275.3789,1.341672E-11,148.3385,124.8377,134.1004,200.9881
'[17:42:04.692 11/09/2023]',20.78309,7.816179,744.6253,1.341672E-11,133.1525,195.2106,513.0154,533.0168
'[17:42:04.700 11/09/2023]',9.252289,5.308436,474.9853,1.341672E-11,6.504707,81.53909,358.6077,325.8924
'[17:42:04.708 11/09/2023]',-9.948926,-2.513931,-116.5866,1.341672E-11,-99.99799,-75.54025,-36.25412,-70.94661
'[17:42:04.716 11/09/2023]',-13.52491,-7.024253,-451.4142,1.341672E-11,-87.35793,-122.3222,-299.9255,-333.1313
'[17:42:04.724 11/09/2023]',-6.155272,-4.395465,-328.2014,1.341672E-11,-18.74007,-57.68622,-229.9282,-228.522
'[17:42:04.732 11/09/2023]',4.358326,1.081565,-15.11861,1.341672E-11,46.94097,23.55299,2.166382,38.83844
'[17:42:04.740 11/09/2023]',5.633566,4.290732,231.8064,1.341672E-11,53.34511,61.88129,155.6615,169.604
'[17:42:04.748 11/09/2023]',3.756059,1.985095,169.9225,1.341672E-11,9.89475,26.09299,99.02345,111.6655
'[17:42:04.756 11/09/2023]',-2.343474,0.1249218,26.13983,1.341672E-11,-7.332711,1.436186,39.83714,30.25652
'[17:42:04.764 11/09/2023]',-0.9939384,0.8499153,-66.85345,1.341672E-11,-16.85616,-20.26773,-52.42855,-44.66169
'[17:42:04.772 11/09/2023]',-2.33299,-0.5951121,-10.96496,1.341672E-11,0.08930844,-0.966402,39.04368,28.69176
'[17:42:04.780 11/09/2023]',-1.2072,-0.2977142,-3.065254,1.341672E-11,-1.092321,1.64637,-4.186607,-4.404425
'[17:42:04.788 11/09/2023]',1.754476,4.89792,43.83145,1.341672E-11,9.667816,17.48914,63.36411,58.61656
'[17:42:04.796 11/09/2023]',-9.193739,-4.652404,-37.76464,1.341672E-11,-7.3597,-10.92611,-54.66938,-41.62997
'[17:42:04.804 11/09/2023]',4.553466,4.200255,1.820819,1.341672E-11,2.403759,4.699663,0.2677441,5.288961
'[17:42:04.812 11/09/2023]',-0.6372147,-0.7188361,12.52071,1.341672E-11,2.252995,3.057055,-17.28473,-9.794759
'[17:42:04.820 11/09/2023]',2.074351,0.4461628,53.78574,1.341672E-11,15.90964,20.94524,40.09294,52.51186
'[17:42:04.828 11/09/2023]',-3.326466,-1.127172,-31.77288,1.341672E-11,-12.56096,-12.3757,-35.72763,-37.9251
'[17:42:04.836 11/09/2023]',3.831491,3.300167,-4.787386,1.341672E-11,-4.541306,-0.004093781,6.897285,10.4857
'[17:42:04.844 11/09/2023]',-0.2822914,0.6472104,-62.07466,1.341672E-11,-12.21253,-24.00102,-44.117,-57.17982
'[17:42:04.852 11/09/2023]',-0.3799863,-0.1452668,-5.903694,1.341672E-11,2.482433,2.221515,0.4138358,11.32511
'[17:42:04.860 11/09/2023]',0.7762117,-1.676722,15.81482,1.341672E-11,11.56566,11.3782,17.49063,22.37612
'[17:42:04.868 11/09/2023]',0.1954645,1.836458,-11.18677,1.341672E-11,1.649209,0.372992,-39.2802,-49.64629
'[17:42:04.876 11/09/2023]',2.194837,2.218163,-1.225413,1.341672E-11,-3.255166,-0.14053,-8.042274,-8.442718
'[17:42:04.884 11/09/2023]',1.310635,2.800596,-9.546122,1.341672E-11,-0.1731711,-0.1051864,-2.732125,-6.920861
'[17:42:04.892 11/09/2023]',-2.507417,-1.230297,-13.39607,1.341672E-11,-5.449546,2.084268,-16.42629,-14.59001
'[17:42:04.900 11/09/2023]',-0.485143,-3.455915,-28.15364,1.341672E-11,-2.04363,-7.226747,-25.84422,-14.21505
'[17:42:04.908 11/09/2023]',0.1411951,2.601996,-34.34591,1.341672E-11,-0.3290482,-3.790371,-8.209914,-18.97241
'[17:42:04.916 11/09/2023]',-2.134159,-1.070796,-5.858406,1.341672E-11,-1.760336,0.6988571,-10.91466,1.931768
'[17:42:04.924 11/09/2023]',-71.99145,-27.36726,-2858,1.341672E-11,-524.3799,-744.1783,-1872.813,-1934.689
'[17:42:04.932 11/09/2023]',-33.62791,-17.26019,-1774.867,1.341672E-11,-23.2858,-296.0412,-1308.383,-1221.444
'[17:42:04.940 11/09/2023]',23.35197,12.05806,184.616,1.341672E-11,210.11,147.499,47.01563,141.422
'[17:42:04.948 11/09/2023]',17.40534,8.626314,509.2041,1.341672E-11,123.1037,150.7666,302.9518,336.1897
'[17:42:04.956 11/09/2023]',4.43314,0.4875333,183.0854,1.341672E-11,26.01717,44.57036,150.7685,152.5981
'[17:42:04.964 11/09/2023]',7.535341,1.716546,174.3077,1.341672E-11,70.64052,65.75903,100.5164,119.0931
'[17:42:04.972 11/09/2023]',17.58971,7.915643,624.3736,1.341672E-11,112.21,162.3217,427.0459,451.4655
'[17:42:04.980 11/09/2023]',9.311555,4.706693,604.2506,1.341672E-11,17.83868,105.9306,447.7799,419.7039
'[17:42:04.988 11/09/2023]',-12.22531,-5.960916,-81.72379,1.341672E-11,-130.6424,-85.97638,32.40981,-53.32898
'[17:42:04.996 11/09/2023]',-24.97473,-10.73197,-787.5586,1.341672E-11,-171.8695,-217.5213,-481.3901,-525.1563
'[17:42:05.004 11/09/2023]',-13.62062,-7.150759,-772.427,1.341672E-11,-52.35239,-152.5069,-532.0321,-509.8594
'[17:42:05.012 11/09/2023]',8.754608,5.611627,-39.09605,1.341672E-11,102.643,50.64153,-71.53991,1.084661
'[17:42:05.020 11/09/2023]',17.08861,12.67348,583.5027,1.341672E-11,149.6874,179.246,340.0523,386.6151
'[17:42:05.028 11/09/2023]',17.48372,9.616392,634.1455,1.341672E-11,59.23289,132.2369,448.1144,435.8203
'[17:42:05.036 11/09/2023]',-4.92836,0.3837137,72.46431,1.341672E-11,-71.90049,-30.71939,51.67422,7.213637
'[17:42:05.044 11/09/2023]',-15.86912,-7.936733,-361.569,1.341672E-11,-100.1459,-116.6619,-217.7382,-241.2599
'[17:42:05.052 11/09/2023]',-11.40679,-7.113058,-368.4042,1.341672E-11,-44.1328,-81.58502,-277.5219,-256.7915
'[17:42:05.060 11/09/2023]',-0.4811183,-0.1009549,-133.1153,1.341672E-11,23.47919,-11.28396,-106.5466,-88.18876
'[17:42:05.068 11/09/2023]',6.230177,2.005926,159.9464,1.341672E-11,52.27883,52.61514,125.4949,152.8685
'[17:42:05.076 11/09/2023]',5.78496,2.04478,151.5282,1.341672E-11,19.40916,32.99957,70.14922,71.25603
'[17:42:05.084 11/09/2023]',-2.392792,-0.2651476,68.6034,1.341672E-11,-2.37625,2.519926,53.32381,56.43335
'[17:42:05.092 11/09/2023]',-0.6607906,1.326123,-22.61318,1.341672E-11,-12.98881,-10.70274,-7.251638,-14.16648
'[17:42:05.100 11/09/2023]',0.4873587,3.960574,-19.76177,1.341672E-11,3.779432,1.770716,-12.5019,-23.3656
'[17:42:05.108 11/09/2023]',1.676793,-1.800665,-48.55236,1.341672E-11,-3.353903,-10.73452,-60.35325,-42.69796
'[17:42:05.116 11/09/2023]',1.255078,2.026296,-2.046387,1.341672E-11,-2.156133,4.568393,5.608191,-4.569046
'[17:42:05.124 11/09/2023]',-1.199448,-2.391201,-21.99555,1.341672E-11,-9.788939,-5.928352,-20.09844,-37.36938
'[17:42:05.132 11/09/2023]',1.706658,-1.86432,-9.630672,1.341672E-11,7.324744,-3.768475,4.614731,-12.31404
'[17:42:05.140 11/09/2023]',0.2645682,-0.3705906,20.20992,1.341672E-11,4.479439,1.590289,25.87136,41.61118
'[17:42:05.148 11/09/2023]',0.9270858,1.149483,25.28502,1.341672E-11,12.45175,9.361894,-7.22975,7.799225
'[17:42:05.156 11/09/2023]',-0.2765375,-1.820028,37.17099,1.341672E-11,3.557755,7.390718,41.73194,31.5146
'[17:42:05.164 11/09/2023]',-0.7608663,0.8485669,-16.18,1.341672E-11,-7.649194,1.838545,9.498673,5.073938
'[17:42:05.172 11/09/2023]',2.287841,2.602461,-50.54336,1.341672E-11,-10.16024,-14.6035,-36.78298,-32.00914
'[17:42:05.180 11/09/2023]',1.898391,-1.856219,-8.464236,1.341672E-11,1.444139,-4.708062,0.2806616,-1.354251
'[17:42:05.188 11/09/2023]',1.285888,-0.4789161,1.034772,1.341672E-11,-1.14295,0.2414419,4.888281,11.08087
'[17:42:05.196 11/09/2023]',1.560358,-0.4886513,46.21884,1.341672E-11,9.778306,12.41377,41.23832,32.37827
'[17:42:05.204 11/09/2023]',-0.2188131,-1.605551,22.02062,1.341672E-11,1.993415,10.02902,41.97138,36.97133
'[17:42:05.212 11/09/2023]',0.3454806,1.332103,-16.72166,1.341672E-11,-5.195539,-9.236009,-26.07376,-26.01968
'[17:42:05.220 11/09/2023]',0.3520018,-0.2733981,-12.84254,1.341672E-11,-3.634687,-6.705209,-11.11743,-12.95685
'[17:42:05.228 11/09/2023]',0.9904359,-0.2803392,15.40342,1.341672E-11,6.321557,4.497073,40.94849,48.53627
'[17:42:05.236 11/09/2023]',1.910023,1.916745,-22.15423,1.341672E-11,-3.927591,-7.624958,-13.39707,-12.15153
'[17:42:05.244 11/09/2023]',-1.895053,-2.054869,1.204767,1.341672E-11,1.588055,3.384048,-1.614088,-11.66736
'[17:42:05.252 11/09/2023]',-2.918594,-2.25706,-4.908406,1.341672E-11,1.866334,0.3432411,-18.75551,-10.07321
'[17:42:05.260 11/09/2023]',42.10109,41.73592,366.2303,1.341672E-11,170.3184,159.6003,200.9351,285.575
'[17:42:05.268 11/09/2023]',7.590058,-3.114192,613.5649,1.341672E-11,101.5891,151.9935,428.91,443.0967
'[17:42:05.276 11/09/2023]',2.109171,2.000072,222.6839,1.341672E-11,-10.29185,22.97487,145.0457,134.5889
'[17:42:05.284 11/09/2023]',-6.417764,-2.175643,-34.757,1.341672E-11,-27.90622,-19.90589,-10.39666,-33.76286
'[17:42:05.292 11/09/2023]',-1.762806,0.9613617,-3.285586,1.341672E-11,-11.3326,-12.90274,3.561645,11.27954
'[17:42:05.300 11/09/2023]',-0.4049431,0.9771377,29.4356,1.341672E-11,-9.118281,-0.5595627,31.08433,12.52592
'[17:42:05.308 11/09/2023]',-1.755748,0.2364306,-66.46062,1.341672E-11,-31.32838,-27.80576,-32.72424,-48.12584
'[17:42:05.316 11/09/2023]',-0.6187982,2.309887,-234.114,1.341672E-11,-33.96449,-55.1781,-151.2275,-164.0395
'[17:42:05.324 11/09/2023]',-4.987957,-2.264901,-120.7367,1.341672E-11,4.462873,-20.58414,-70.83742,-62.12573
'[17:42:05.332 11/09/2023]',4.99059,0.1334299,82.85534,1.341672E-11,45.91384,38.35089,72.0915,81.0414
'[17:42:05.340 11/09/2023]',13.05954,9.292241,237.7586,1.341672E-11,48.73652,64.03152,152.363,167.0064
'[17:42:05.348 11/09/2023]',-0.6547644,-3.186424,181.8568,1.341672E-11,-0.003623591,26.29266,132.3367,123.5816
'[17:42:05.356 11/09/2023]',-4.123423,-2.81238,-27.92885,1.341672E-11,-30.92233,-26.10242,-30.75442,-53.04779
'[17:42:05.364 11/09/2023]',-3.653583,-0.9572502,-157.6413,1.341672E-11,-33.21983,-42.27999,-89.64487,-99.89066
'[17:42:05.372 11/09/2023]',-0.5330076,0.6882076,-135.4857,1.341672E-11,-5.29558,-23.06381,-89.14768,-91.62965
'[17:42:05.380 11/09/2023]',0.1133989,-2.273538,-12.29252,1.341672E-11,18.68807,10.93868,-26.58546,-20.3013
'[17:42:05.388 11/09/2023]',1.484131,-1.587051,62.65527,1.341672E-11,20.67909,21.6881,27.26049,34.24887
'[17:42:05.396 11/09/2023]',-1.857706,-0.6639996,68.85875,1.341672E-11,7.549058,10.97832,37.31711,30.58569
'[17:42:05.404 11/09/2023]',1.505834,1.223747,29.2606,1.341672E-11,-3.425412,0.1580416,7.74687,16.20745
'[17:42:05.412 11/09/2023]',-0.6202576,-1.228525,-44.02,1.341672E-11,-6.439024,-13.54788,-54.05789,-51.77413
'[17:42:05.420 11/09/2023]',-2.57434,-2.354846,-46.473,1.341672E-11,-11.66519,-16.59179,-31.49041,-30.43801
'[17:42:05.428 11/09/2023]',3.598555,1.929904,6.513482,1.341672E-11,2.848613,6.661232,48.48619,39.12095
'[17:42:05.436 11/09/2023]',7.423835,2.640257,1.936166,1.341672E-11,3.972491,1.404393,-3.491044,4.562348
'[17:42:05.444 11/09/2023]',0.9779474,1.577788,16.00905,1.341672E-11,6.766798,6.639283,52.98876,41.98344
'[17:42:05.452 11/09/2023]',-3.08754,-2.365605,-48.90423,1.341672E-11,-11.05172,-17.25061,-76.69701,-78.62172
'[17:42:05.460 11/09/2023]',-2.468051,-0.4003146,11.84525,1.341672E-11,1.9355,-0.002272381,10.02158,8.38278
'[17:42:05.468 11/09/2023]',0.04885832,0.575439,-17.95824,1.341672E-11,-7.042566,-9.113894,-31.24191,-26.72817
'[17:42:05.476 11/09/2023]',-2.320224,-2.614841,43.04434,1.341672E-11,2.061563,10.80092,57.43327,61.44772
'[17:42:05.484 11/09/2023]',4.41051,0.3577304,0.9635572,1.341672E-11,1.235619,8.607149,1.924853,-2.587259
'[17:42:05.492 11/09/2023]',-8.540848,3.661828,4.429815,1.341672E-11,0.1969713,13.80962,7.885084,5.726986
'[17:42:05.500 11/09/2023]',-1.15153,-1.986742,2.493966,1.341672E-11,-3.457537,2.355147,1.145852,8.129427
'[17:42:05.508 11/09/2023]',1.792124,1.60128,-38.87252,1.341672E-11,-0.7808721,-3.875325,-61.23603,-60.23915
'[17:42:05.516 11/09/2023]',-0.3574409,-1.080002,-18.31129,1.341672E-11,1.363564,-1.23598,-24.81555,-51.20525
'[17:42:05.524 11/09/2023]',0.0229218,0.1623434,-4.376361,1.341672E-11,3.430993,2.254308,-4.617468,7.532959
'[17:42:05.532 11/09/2023]',-0.6561334,1.465768,19.93336,1.341672E-11,6.761775,7.686251,27.35728,25.89411
'[17:42:05.540 11/09/2023]',2.65518,1.065758,27.14498,1.341672E-11,9.073858,10.25559,24.32182,37.70031
'[17:42:05.548 11/09/2023]',-1.830273,-0.8022665,-1.513566,1.341672E-11,5.960097,6.566482,-1.56313,6.380579
'[17:42:05.556 11/09/2023]',0.03769571,-7.044164,25.11936,1.341672E-11,3.812632,9.175499,33.5066,25.86292
'[17:42:05.564 11/09/2023]',0.8012601,-1.408071,10.60493,1.341672E-11,7.353727,2.979199,11.01268,17.30802
'[17:42:05.572 11/09/2023]',-2.081215,-0.1129648,24.14087,1.341672E-11,5.322002,5.636081,25.17979,14.76664
'[17:42:05.580 11/09/2023]',0.7635387,0.4602304,-12.10906,1.341672E-11,1.012603,-0.7719287,-10.60264,2.302497
'[17:42:05.588 11/09/2023]',-1.676027,-0.1730118,1.403592,1.341672E-11,1.474107,-0.4014918,26.67049,6.586024
'[17:42:05.596 11/09/2023]',-17.12677,-2.966804,-8.450531,1.341672E-11,6.734213,-0.1761118,-21.11225,-25.11898
'[17:42:05.604 11/09/2023]',7.792798,2.876245,24.02154,1.341672E-11,-3.23608,2.769342,22.28995,12.61443
'[17:42:05.612 11/09/2023]',-1.88287,0.1438955,15.13476,1.341672E-11,2.159286,-0.1457639,11.40863,18.78511
'[17:42:05.620 11/09/2023]',0.1858516,0.4084189,29.24645,1.341672E-11,7.972838,13.54345,20.52867,23.83872
'[17:42:05.628 11/09/2023]',-1.207476,1.255862,-9.240726,1.341672E-11,-1.377802,-4.35231,-31.9401,-15.00375
'[17:42:05.636 11/09/2023]',0.6782802,-1.710096,-6.369331,1.341672E-11,-6.473085,-10.00602,-14.26284,-11.04261
'[17:42:05.644 11/09/2023]',0.638527,0.7292662,28.02494,1.341672E-11,2.88113,7.515913,35.24594,47.0026
'[17:42:05.652 11/09/2023]',3.527603,0.6142041,15.85067,1.341672E-11,1.127658,8.741076,4.358483,2.596154
'[17:42:05.660 11/09/2023]',3.759207,1.339747,27.61202,1.341672E-11,-0.7769771,10.56199,33.47653,31.38682
'[17:42:05.668 11/09/2023]',-0.9182308,-2.808796,4.317426,1.341672E-11,5.585023,5.244772,-8.682335,-21.89731
'[17:42:05.676 11/09/2023]',-5.364436,-5.135107,-24.5716,1.341672E-11,-9.954194,-9.773787,-21.79797,0.846729
'[17:42:05.684 11/09/2023]',-0.6423649,1.428443,-12.35802,1.341672E-11,-1.099775,-1.39736,-46.32907,-46.67813
'[17:42:05.692 11/09/2023]',-1.887646,3.769465,11.17712,1.341672E-11,2.544183,7.164103,48.08221,45.0269
'[17:42:05.700 11/09/2023]',-2.273498,-2.440676,-30.0974,1.341672E-11,-9.927115,-14.50531,-60.76631,-51.58661
'[17:42:05.708 11/09/2023]',3.575285,7.017578,-33.61683,1.341672E-11,-1.203909,-14.71137,-38.50936,-47.93339
'[17:42:05.716 11/09/2023]',-1.015711,-2.651635,-17.67475,1.341672E-11,-7.320938,-8.181466,-27.95079,-40.73374
'[17:42:05.724 11/09/2023]',-1.394969,-2.829044,2.200306,1.341672E-11,-6.632692,-5.766251,-1.428985,-0.7801864
'[17:42:05.732 11/09/2023]',6.156414,2.897594,-25.6998,1.341672E-11,1.179676,-6.5672,-33.66584,-46.8815
'[17:42:05.740 11/09/2023]',-0.3844646,-0.03429758,-21.5145,1.341672E-11,-5.085983,-5.569365,-23.61603,-23.44836
'[17:42:05.748 11/09/2023]',0.9056075,-1.817044,22.71058,1.341672E-11,-0.08629392,6.230577,24.54608,26.34326
'[17:42:05.756 11/09/2023]',0.02852776,-0.3006343,-1.745056,1.341672E-11,-2.161782,3.824547,7.876867,0.754879
'[17:42:05.764 11/09/2023]',-1.403975,2.112525,-10.03588,1.341672E-11,-4.594139,2.868067,-7.217216,-14.12567
'[17:42:05.772 11/09/2023]',-3.12384,-2.93122,25.00498,1.341672E-11,6.639127,3.964314,22.84399,40.75529
'[17:42:05.780 11/09/2023]',5.941069,6.290892,9.533131,1.341672E-11,7.106448,2.882696,-3.418188,-1.70651
'[17:42:05.788 11/09/2023]',-2.755897,-3.704718,30.74145,1.341672E-11,4.069954,4.131622,40.7374,41.26947
'[17:42:05.796 11/09/2023]',0.3109467,0.9285857,17.419,1.341672E-11,1.772274,3.57084,31.76876,20.87363
'[17:42:05.804 11/09/2023]',-0.3445878,1.008839,-12.73557,1.341672E-11,-4.45165,-3.006044,-6.665083,8.456336
'[17:42:05.812 11/09/2023]',-2.489177,-4.502112,10.95275,1.341672E-11,4.943366,5.648135,61.14055,68.15124
'[17:42:05.820 11/09/2023]',4.117167,1.393268,17.08888,1.341672E-11,2.264517,4.808825,14.9571,7.875425
'[17:42:05.828 11/09/2023]',-0.4083281,-1.989045,-2.995183,1.341672E-11,-4.174357,-2.043143,13.12546,4.171605
'[17:42:05.836 11/09/2023]',-3.764506,-0.5692582,-22.86712,1.341672E-11,-4.761811,-13.9769,-34.39227,-38.0576
'[17:42:05.844 11/09/2023]',0.3154305,-1.536457,-11.98578,1.341672E-11,-5.23802,-6.064502,-29.65088,-39.2952
'[17:42:05.852 11/09/2023]',3.722798,3.475413,6.186649,1.341672E-11,7.015821,6.551673,5.337146,-4.533028
'[17:42:05.860 11/09/2023]',-2.867578,-0.5341963,-14.99576,1.341672E-11,-4.073858,-1.952724,-6.832476,-4.683761
'[17:42:05.868 11/09/2023]',1.499259,-0.8873944,12.66732,1.341672E-11,-3.862983,-0.6793359,11.21499,20.41799
'[17:42:05.876 11/09/2023]',-0.2680477,0.2815755,23.96529,1.341672E-11,4.386872,9.153744,31.1932,32.38341
'[17:42:05.884 11/09/2023]',1.958853,-0.5607791,-28.11476,1.341672E-11,-3.161805,-11.0281,-49.50536,-69.59492
'[17:42:05.892 11/09/2023]',1.564306,-0.1717097,-7.228614,1.341672E-11,1.499876,3.371281,-7.526617,-10.05176
'[17:42:05.900 11/09/2023]',0.9976933,0.4027216,-7.650948,1.341672E-11,-1.947518,-3.991862,-1.257852,-10.24342
'[17:42:05.908 11/09/2023]',-0.7988697,0.1901128,17.61166,1.341672E-11,6.953632,6.350423,31.45855,40.31806
'[17:42:05.916 11/09/2023]',-2.313328,-2.76595,22.90898,1.341672E-11,3.791656,3.247389,42.91601,46.67678
'[17:42:05.924 11/09/2023]',0.8015499,0.9503515,-2.629109,1.341672E-11,4.933311,6.192964,20.68122,1.060144
'[17:42:05.932 11/09/2023]',0.6395674,-1.989653,14.58095,1.341672E-11,1.757947,-0.2749015,8.143665,19.14448
'[17:42:05.940 11/09/2023]',4.783928,10.0337,873.0801,1.341672E-11,-217.8513,23.79408,738.1316,591.4946
'[17:42:05.948 11/09/2023]',-57.02353,-26.24372,-1414.497,1.341672E-11,-447.8851,-486.8036,-864.5597,-1029.921
'[17:42:05.956 11/09/2023]',-33.18293,-13.58028,-1206.536,1.341672E-11,-158.1445,-280.3179,-806.8096,-819.7419
'[17:42:05.964 11/09/2023]',-2.726533,-1.815019,-286.4332,1.341672E-11,21.90088,-33.48746,-212.5375,-189.254
'[17:42:05.972 11/09/2023]',-0.6088987,0.2659655,-1.82205,1.341672E-11,20.19923,11.84778,2.258359,16.57621
'[17:42:05.980 11/09/2023]',-6.211214,-3.697748,-263.1953,1.341672E-11,-12.23826,-47.77272,-167.4934,-157.6847
'[17:42:05.988 11/09/2023]',-1.050064,-1.752224,-169.6395,1.341672E-11,47.42833,-4.14636,-145.4555,-111.2631
'[17:42:05.996 11/09/2023]',18.13951,9.275376,458.1731,1.341672E-11,143.3275,152.9549,309.216,351.7083
'[17:42:06.004 11/09/2023]',18.02192,7.091761,777.7296,1.341672E-11,111.6741,193.0342,542.1835,556.116
'[17:42:06.012 11/09/2023]',1.363325,1.43965,413.4744,1.341672E-11,-43.3185,43.95288,320.0832,270.432
'[17:42:06.020 11/09/2023]',-14.97119,-6.233156,-342.3947,1.341672E-11,-156.9747,-142.6387,-186.3875,-227.8493
'[17:42:06.028 11/09/2023]',-20.49833,-7.318691,-751.0676,1.341672E-11,-123.1711,-191.7991,-497.9458,-538.0453
'[17:42:06.036 11/09/2023]',-5.325338,-1.127155,-439.106,1.341672E-11,9.21067,-69.64548,-346.8808,-322.0455
'[17:42:06.044 11/09/2023]',13.24084,3.608871,194.4397,1.341672E-11,113.4016,90.84743,107.0419,156.4213
'[17:42:06.052 11/09/2023]',14.7925,6.885763,523.1674,1.341672E-11,102.4663,140.2988,341.4436,357.5654
'[17:42:06.060 11/09/2023]',5.879904,3.33626,317.6504,1.341672E-11,4.20997,54.17408,232.0319,216.9417
'[17:42:06.068 11/09/2023]',-8.811093,-5.490549,-92.67004,1.341672E-11,-64.43414,-50.51438,-66.08459,-102.0063
'[17:42:06.076 11/09/2023]',-7.11977,-2.851443,-269.8042,1.341672E-11,-61.63608,-78.88374,-184.7394,-189.0698
'[17:42:06.084 11/09/2023]',-7.089816,-2.446499,-196.3422,1.341672E-11,-9.930337,-33.84657,-137.0515,-128.2756
'[17:42:06.092 11/09/2023]',-2.501861,-0.3369084,-50.30904,1.341672E-11,13.97971,-2.075428,-67.20544,-63.76479
'[17:42:06.100 11/09/2023]',6.775138,2.465929,146.186,1.341672E-11,30.46565,39.74368,118.8296,115.2109
'[17:42:06.108 11/09/2023]',1.264507,1.353434,72.38416,1.341672E-11,11.47202,16.55474,50.64779,54.46154
'[17:42:06.116 11/09/2023]',-2.764071,-2.782264,-28.74107,1.341672E-11,-10.74641,-15.92946,-59.92958,-48.69008
'[17:42:06.124 11/09/2023]',2.422589,-0.3301151,-14.45397,1.341672E-11,-1.958692,-3.33286,-26.94035,-14.98278
'[17:42:06.132 11/09/2023]',3.199384,0.1576398,-7.154334,1.341672E-11,-1.126818,-2.61129,-0.3148206,-3.013763
'[17:42:06.140 11/09/2023]',1.676147,-0.7106462,-2.957595,1.341672E-11,-0.05159735,-1.848758,4.211026,-5.848899
'[17:42:06.148 11/09/2023]',-0.6882054,-1.660472,-54.77549,1.341672E-11,-5.357221,-14.02056,-66.52168,-64.61843
'[17:42:06.156 11/09/2023]',-0.1781406,-0.7865531,-9.334947,1.341672E-11,-3.11005,0.02885404,-8.669736,-28.30721
'[17:42:06.164 11/09/2023]',-10.76924,-3.470275,-17.32187,1.341672E-11,4.037812,1.267175,7.680595,3.980115
'[17:42:06.172 11/09/2023]',1.132365,-0.4495451,19.70265,1.341672E-11,13.28367,9.761249,-9.478724,14.03827
'[17:42:06.180 11/09/2023]',-1.514475,-0.8152328,37.21797,1.341672E-11,0.08934394,1.746812,15.41957,28.19584
'[17:42:06.188 11/09/2023]',-0.3963488,-0.4901403,22.61289,1.341672E-11,-4.172911,2.974246,30.45217,33.08502
'[17:42:06.196 11/09/2023]',-3.013924,-4.03721,2.038304,1.341672E-11,-1.289878,-0.6711286,19.16922,22.15423
'[17:42:06.204 11/09/2023]',7.040961,5.069998,-10.67343,1.341672E-11,4.263928,1.281494,-5.603564,-19.3265
'[17:42:06.212 11/09/2023]',2.653985,1.386111,-19.76216,1.341672E-11,3.722174,-2.659643,-24.54813,-14.06995
'[17:42:06.220 11/09/2023]',4.646065,2.933303,47.82786,1.341672E-11,3.376691,7.610743,57.69413,55.11254
'[17:42:06.228 11/09/2023]',0.3561053,-1.421875,18.14828,1.341672E-11,6.594751,3.744782,13.62719,31.98754
'[17:42:06.236 11/09/2023]',0.01060157,0.1089764,37.59586,1.341672E-11,11.57896,13.68151,58.74389,73.59532
'[17:42:06.244 11/09/2023]',-1.525049,-0.4969058,-17.58036,1.341672E-11,-11.86467,-11.07517,-32.63267,-43.53706
'[17:42:06.252 11/09/2023]',-1.186072,-2.820563,10.52732,1.341672E-11,3.29403,5.674202,10.83053,20.87469
'[17:42:06.260 11/09/2023]',5.404906,0.7493044,-31.66221,1.341672E-11,-5.802702,-12.72609,-29.70848,-32.76158
'[17:42:06.268 11/09/2023]',0.6026266,1.685228,15.68782,1.341672E-11,5.294867,10.70133,49.25157,54.11754
'[17:42:06.276 11/09/2023]',-4.414056,-0.8850862,-32.40787,1.341672E-11,-11.58839,-12.71547,-42.19215,-45.91903
'[17:42:06.284 11/09/2023]',0.4581706,0.9655126,16.81518,1.341672E-11,0.7048931,2.296463,26.33077,27.55395
'[17:42:06.292 11/09/2023]',-1.792392,-1.098812,5.363645,1.341672E-11,-1.381691,0.7662176,-11.31107,-5.18159
'[17:42:06.300 11/09/2023]',1.76063,-0.05550167,29.23968,1.341672E-11,5.425195,8.266507,56.22269,42.91476
'[17:42:06.308 11/09/2023]',-3.364472,0.4414831,8.808588,1.341672E-11,0.6572924,1.936333,3.389655,-9.082894
'[17:42:06.316 11/09/2023]',1.856136,-0.889573,14.91248,1.341672E-11,0.3323516,1.286118,32.71222,18.74607
'[17:42:06.324 11/09/2023]',2.78327,-2.078832,9.575969,1.341672E-11,-1.656967,1.974907,20.25273,19.00561
'[17:42:06.332 11/09/2023]',2.710242,-1.392296,23.27338,1.341672E-11,5.337328,4.779732,25.80846,16.41475
'[17:42:06.340 11/09/2023]',-2.776135,-3.750044,-21.65498,1.341672E-11,4.267612,0.03841313,-35.75487,-42.5931
'[17:42:06.348 11/09/2023]',1.478783,2.89546,-3.757481,1.341672E-11,-0.7050556,3.792299,-4.685277,-5.894589
'[17:42:06.356 11/09/2023]',1.195695,1.043072,-4.275129,1.341672E-11,-3.252894,-1.627246,-12.89382,-17.06153
'[17:42:06.364 11/09/2023]',-0.7952532,0.443148,6.933517,1.341672E-11,0.9029663,3.23627,13.53351,26.64123
'[17:42:06.372 11/09/2023]',3.24113,0.07625942,18.35781,1.341672E-11,6.304122,8.911539,6.830573,10.58996
'[17:42:06.380 11/09/2023]',4.167156,2.14988,29.55632,1.341672E-11,1.295567,4.672936,47.70245,45.42355
'[17:42:06.388 11/09/2023]',1.541581,-0.9257336,17.95133,1.341672E-11,13.63822,14.77851,31.97743,32.59923
'[17:42:06.396 11/09/2023]',0.6753157,1.627102,-1.974529,1.341672E-11,-1.822054,-5.890422,-9.673141,-10.24199
'[17:42:06.404 11/09/2023]',1.111719,0.6483474,19.49711,1.341672E-11,7.166775,6.717616,25.50795,24.32218
'[17:42:06.412 11/09/2023]',-2.061429,-4.626729,-7.890192,1.341672E-11,-2.257756,-1.174511,-2.732187,-3.91705
'[17:42:06.420 11/09/2023]',-3.78206,-2.049913,-9.043969,1.341672E-11,5.147378,4.241928,-12.05995,-26.57388
'[17:42:06.428 11/09/2023]',-0.8802063,-0.1272698,19.35265,1.341672E-11,2.862121,4.557223,4.810143,20.29546
'[17:42:06.436 11/09/2023]',0.7818623,0.6463541,-12.37435,1.341672E-11,-4.272024,-5.460927,-34.60243,-25.22478
'[17:42:06.444 11/09/2023]',-2.979202,-1.624387,-23.94561,1.341672E-11,-11.58559,-12.0007,-13.53267,-21.30483
'[17:42:06.452 11/09/2023]',0.2406789,1.500053,25.02334,1.341672E-11,2.122949,4.602271,21.34933,28.45759
'[17:42:06.460 11/09/2023]',-0.2013769,0.9465486,-7.788567,1.341672E-11,4.347391,-0.3684632,12.72199,19.32956
'[17:42:06.468 11/09/2023]',2.342813,0.04578898,-4.190609,1.341672E-11,1.794423,-0.8534839,8.991506,9.928857
'[17:42:06.476 11/09/2023]',2.065376,1.755788,11.68893,1.341672E-11,10.75165,10.02308,13.40132,8.920915
'[17:42:06.484 11/09/2023]',-1.203645,1.103097,9.335926,1.341672E-11,1.994289,2.312251,-2.711502,4.307406
'[17:42:06.492 11/09/2023]',-0.1189825,1.972097,18.74622,1.341672E-11,0.9079466,0.7827675,10.1423,11.32596
'[17:42:06.500 11/09/2023]',-3.712746,-3.325711,15.43856,1.341672E-11,7.607898,13.84665,33.65711,30.03319
'[17:42:06.508 11/09/2023]',-0.9441821,-1.216391,-11.34133,1.341672E-11,0.001964421,-5.881567,-39.01533,-32.87428
'[17:42:06.516 11/09/2023]',-0.6001806,0.3362269,23.26901,1.341672E-11,7.617677,8.144428,2.752991,14.82401
'[17:42:06.524 11/09/2023]',0.6481294,3.05153,-5.838379,1.341672E-11,0.2178133,0.1679409,23.57442,-0.3574984
'[17:42:06.532 11/09/2023]',3.7328,2.512326,11.59137,1.341672E-11,7.03766,6.038065,5.656066,0.1752226
'[17:42:06.540 11/09/2023]',-0.734489,-1.206226,-9.748931,1.341672E-11,1.627374,-2.923331,-27.8582,-30.37893
'[17:42:06.548 11/09/2023]',-5.275024,-5.502092,-28.58804,1.341672E-11,-13.32249,-11.21142,-38.61835,-56.99833
'[17:42:06.556 11/09/2023]',2.710757,1.048369,-13.32784,1.341672E-11,-1.361023,-2.590943,-18.54185,-10.37902
'[17:42:06.564 11/09/2023]',-0.2478264,0.2374425,18.55552,1.341672E-11,-0.6908618,7.372592,22.52608,25.64012
'[17:42:06.572 11/09/2023]',-4.10259,-1.206933,-12.20724,1.341672E-11,-0.8383734,-6.898136,-17.04725,-15.88423
'[17:42:06.580 11/09/2023]',-0.2712389,0.1135426,0.5151522,1.341672E-11,-1.643982,3.848233,-6.918114,-5.165351
'[17:42:06.588 11/09/2023]',3.812658,-1.25979,-29.54624,1.341672E-11,-0.2567638,-7.586515,-58.33675,-67.07828
'[17:42:06.596 11/09/2023]',-0.7306178,-0.06602378,16.85664,1.341672E-11,-4.249541,-2.369463,19.46162,28.77428
'[17:42:06.604 11/09/2023]',0.913597,0.1288105,11.07922,1.341672E-11,6.835158,9.859472,14.35848,12.13515
'[17:42:06.612 11/09/2023]',5.924178,3.151706,13.72567,1.341672E-11,0.07185575,2.192236,5.361688,-3.399002
'[17:42:06.620 11/09/2023]',-1.76865,-1.883031,13.19431,1.341672E-11,-7.235121,-2.446104,24.68207,24.45062
'[17:42:06.628 11/09/2023]',0.7746192,-3.505423,8.823196,1.341672E-11,7.328692,2.962252,-5.939903,-4.788077
'[17:42:06.636 11/09/2023]',1.720402,2.385377,-35.08381,1.341672E-11,-5.509063,-4.908669,-28.14729,-42.51339
'[17:42:06.644 11/09/2023]',-1.133453,-1.040415,25.51529,1.341672E-11,-0.3928491,8.744267,31.50869,17.86307
'[17:42:06.652 11/09/2023]',0.609859,2.199294,11.26895,1.341672E-11,-0.2254369,3.587152,16.21895,22.01361
'[17:42:06.660 11/09/2023]',0.05738238,0.2207033,-31.03867,1.341672E-11,1.093713,-9.621082,-40.56734,-43.31223
'[17:42:06.668 11/09/2023]',-23.84982,-2.349823,-225.9511,1.341672E-11,-414.4601,-263.4122,16.38622,-168.2458
'[17:42:06.676 11/09/2023]',-85.43153,-35.34723,-2079.453,1.341672E-11,-455.8641,-594.1121,-1362.314,-1491.856
'[17:42:06.684 11/09/2023]',-20.10671,-12.15221,-1085.498,1.341672E-11,-71.22173,-218.2731,-738.598,-717.2158
'[17:42:06.692 11/09/2023]',7.990953,4.689248,-46.72789,1.341672E-11,72.83098,34.73204,-41.19736,-20.37547
'[17:42:06.700 11/09/2023]',2.984927,0.4659269,40.73457,1.341672E-11,18.56811,17.98591,29.66587,55.94809
'[17:42:06.708 11/09/2023]',-0.2813033,-0.8536742,-238.2051,1.341672E-11,2.373688,-39.69958,-203.876,-195.3315
'[17:42:06.716 11/09/2023]',8.366514,2.709484,42.87709,1.341672E-11,91.02515,61.58184,-3.717335,39.41621
'[17:42:06.724 11/09/2023]',20.41184,7.290445,653.2338,1.341672E-11,150.1171,194.6161,435.8017,459.7371
'[17:42:06.732 11/09/2023]',15.22385,6.574031,753.1083,1.341672E-11,59.77056,155.1182,514.0391,492.9276
'[17:42:06.740 11/09/2023]',-7.097198,-3.170553,81.45968,1.341672E-11,-117.8384,-53.68683,70.12844,16.06041
'[17:42:06.748 11/09/2023]',-24.25264,-9.989449,-652.046,1.341672E-11,-174.4114,-207.7634,-407.3353,-476.8022
'[17:42:06.756 11/09/2023]',-19.57431,-12.58962,-766.5609,1.341672E-11,-83.01856,-170.0378,-518.451,-518.4749
'[17:42:06.764 11/09/2023]',1.439408,-1.631371,-225.5558,1.341672E-11,58.07547,-3.559422,-191.218,-158.5306
'[17:42:06.772 11/09/2023]',14.29715,7.937526,411.493,1.341672E-11,128.2083,143.7034,228.2232,290.133
'[17:42:06.780 11/09/2023]',15.10403,5.779757,566.8613,1.341672E-11,76.91789,136.243,426.4178,444.4734
'[17:42:06.788 11/09/2023]',0.2859318,0.2538011,158.8345,1.341672E-11,-36.34274,0.5069721,81.59074,60.82969
'[17:42:06.796 11/09/2023]',-6.399605,-0.7728657,-217.4104,1.341672E-11,-73.36203,-77.89059,-124.8213,-142.9641
'[17:42:06.804 11/09/2023]',-8.023236,-6.446887,-268.0386,1.341672E-11,-45.75428,-65.06702,-131.5228,-146.9909
'[17:42:06.812 11/09/2023]',-2.100943,-0.6086808,-145.6512,1.341672E-11,4.250124,-21.25866,-136.4165,-111.4369
'[17:42:06.820 11/09/2023]',5.316286,2.658785,91.8446,1.341672E-11,29.58592,36.54446,60.22977,76.14761
'[17:42:06.828 11/09/2023]',-0.604961,4.134253,130.8592,1.341672E-11,21.99942,33.45476,78.84863,76.13698
'[17:42:06.836 11/09/2023]',-0.3395181,-1.118834,25.46241,1.341672E-11,-5.244101,3.035784,23.94872,27.00609
'[17:42:06.844 11/09/2023]',-3.019725,-2.191795,-18.34283,1.341672E-11,-8.83536,-7.843014,-9.640988,-23.49342
'[17:42:06.852 11/09/2023]',0.6787686,2.579279,-23.86702,1.341672E-11,7.224282,2.982305,-27.53854,-22.85537
'[17:42:06.860 11/09/2023]',0.7282148,0.1881215,12.61727,1.341672E-11,5.00401,7.053527,-4.121469,-10.01862
'[17:42:06.868 11/09/2023]',-1.32317,3.806229,-26.16274,1.341672E-11,0.5987402,-6.244993,-27.38508,-10.51279
'[17:42:06.876 11/09/2023]',-7.611578,-5.990392,-15.63661,1.341672E-11,-2.101936,-0.8798695,22.30781,21.36449
'[17:42:06.884 11/09/2023]',-0.1866808,0.9894297,2.290885,1.341672E-11,3.387033,-2.784238,-24.01356,-21.42233
'[17:42:06.892 11/09/2023]',3.398836,0.8020183,-5.295332,1.341672E-11,1.01486,-6.342426,-19.46853,-15.30619
'[17:42:06.900 11/09/2023]',-1.604077,-3.40817,33.29724,1.341672E-11,8.890069,8.712496,-2.077816,8.985976
'[17:42:06.908 11/09/2023]',3.404668,6.198067,41.2598,1.341672E-11,6.641909,7.879381,38.74751,47.14523
'[17:42:06.916 11/09/2023]',2.030832,2.15959,-21.70246,1.341672E-11,-8.410081,-15.09672,-19.64102,-12.10486
'[17:42:06.924 11/09/2023]',0.6547752,1.260251,-21.27916,1.341672E-11,-5.027824,-5.955267,-24.78434,-27.36077
'[17:42:06.932 11/09/2023]',-1.189399,-1.115371,-36.01565,1.341672E-11,-8.14466,-9.208815,-23.30519,-34.42759
'[17:42:06.940 11/09/2023]',3.513599,1.397374,3.352257,1.341672E-11,-3.450807,1.665134,15.12796,24.4673
'[17:42:06.948 11/09/2023]',0.2943395,0.9679982,53.69177,1.341672E-11,8.948857,15.68576,66.47778,60.2012
'[17:42:06.956 11/09/2023]',-1.0798,1.112873,-14.65942,1.341672E-11,2.655586,1.248897,-14.49761,-11.4398
'[17:42:06.964 11/09/2023]',1.201906,1.298485,31.06456,1.341672E-11,6.48476,8.923024,28.24313,32.24047
'[17:42:06.972 11/09/2023]',-0.1948408,0.661754,-29.69314,1.341672E-11,-10.24108,-8.537124,-27.27199,-41.02306
'[17:42:06.980 11/09/2023]',-0.1596646,0.5776522,-34.60318,1.341672E-11,-8.653757,-17.60944,-38.90564,-34.46294
'[17:42:06.988 11/09/2023]',0.9818183,1.014333,8.982762,1.341672E-11,-2.345052,0.2250844,19.54221,18.69906
'[17:42:06.996 11/09/2023]',-1.478004,-3.292788,-35.62859,1.341672E-11,-7.586982,-11.1567,-18.18319,-14.39763
'[17:42:07.004 11/09/2023]',-3.552925,0.8277906,-30.83294,1.341672E-11,0.4993032,-4.556037,-24.32787,-25.28243
'[17:42:07.012 11/09/2023]',-2.522564,-2.684309,-39.36366,1.341672E-11,-3.945452,-15.04366,-36.44703,-46.43401
'[17:42:07.020 11/09/2023]',1.570932,2.198219,7.212275,1.341672E-11,5.664521,4.609216,13.75828,25.05404
'[17:42:07.028 11/09/2023]',-2.927535,-3.972077,-16.59295,1.341672E-11,-7.384391,-9.489717,-33.65373,-11.49983
'[17:42:07.036 11/09/2023]',-1.030208,-2.258476,0.5430635,1.341672E-11,-2.186876,-7.911816,-25.80375,-24.50652
'[17:42:07.044 11/09/2023]',-0.2314272,-0.6209525,-4.217106,1.341672E-11,-2.205854,-1.001236,-10.9183,-21.30289
'[17:42:07.052 11/09/2023]',-2.807571,-0.5086062,-10.52215,1.341672E-11,-6.268233,-2.900702,9.592229,8.854094
'[17:42:07.060 11/09/2023]',-3.254524,-0.4776219,5.985367,1.341672E-11,-0.06374533,-1.208558,-3.918401,8.480302
'[17:42:07.068 11/09/2023]',0.04782135,0.01648626,18.29498,1.341672E-11,8.747607,8.915913,18.83389,34.01556
'[17:42:07.076 11/09/2023]',3.588971,0.32222,12.94434,1.341672E-11,7.785157,8.991802,19.23749,15.41529
'[17:42:07.084 11/09/2023]',-0.6591226,-0.7532411,-15.68879,1.341672E-11,-3.104734,-3.396849,-23.95522,-24.57265
'[17:42:07.092 11/09/2023]',-3.923653,1.715759,-8.034635,1.341672E-11,-5.800922,-3.65642,7.488522,1.262802
'[17:42:07.100 11/09/2023]',-0.2702766,0.6101124,-5.961597,1.341672E-11,3.51663,7.755774,-4.044678,4.294744
'[17:42:07.108 11/09/2023]',-2.465542,-1.061334,-3.540047,1.341672E-11,1.680441,2.25671,11.30951,1.388365
'[17:42:07.116 11/09/2023]',-1.021232,0.6638123,40.52847,1.341672E-11,9.222725,10.64777,42.19861,45.14533
'[17:42:07.124 11/09/2023]',3.743072,1.948809,15.66487,1.341672E-11,5.834448,7.240642,8.17901,17.32307
'[17:42:07.132 11/09/2023]',-6.479312,-5.727453,-21.781,1.341672E-11,-7.585492,-10.40343,-21.24966,-26.57091
'[17:42:07.140 11/09/2023]',1.400834,0.01528468,9.626755,1.341672E-11,-0.06131876,-1.582283,17.81706,12.00832
'[17:42:07.148 11/09/2023]',-0.3850642,-1.429854,-31.46759,1.341672E-11,-0.783772,-16.29224,-44.89971,-32.34216
'[17:42:07.156 11/09/2023]',7.987934,4.829569,-35.98138,1.341672E-11,-8.415466,-6.439865,-41.41317,-47.18425
'[17:42:07.164 11/09/2023]',4.276256,-0.3610376,25.88151,1.341672E-11,-1.164571,4.683026,21.29477,10.10229
'[17:42:07.172 11/09/2023]',1.528349,3.377483,-14.59171,1.341672E-11,9.897145,1.754003,-23.12876,-10.92103
'[17:42:07.180 11/09/2023]',-4.671015,-4.348882,-4.69558,1.341672E-11,2.456881,-2.506478,1.679227,-1.888718
'[17:42:07.188 11/09/2023]',2.572464,-0.5945203,20.96796,1.341672E-11,-0.8837059,8.658173,27.33623,19.88482
'[17:42:07.196 11/09/2023]',1.226207,0.9010187,-19.23944,1.341672E-11,-2.663319,-2.267664,-16.92063,-23.6346
'[17:42:07.204 11/09/2023]',-0.8985723,-1.759724,21.20847,1.341672E-11,7.032362,4.727156,40.6131,33.34469
'[17:42:07.212 11/09/2023]',0.2652604,-0.2666656,17.6191,1.341672E-11,5.651563,3.865179,6.288727,10.73343
'[17:42:07.220 11/09/2023]',-1.30553,-0.9660195,-18.91848,1.341672E-11,-2.06299,-3.490398,-32.40313,-39.9631
'[17:42:07.228 11/09/2023]',4.031011,-0.4363524,21.90425,1.341672E-11,1.605357,10.6591,38.34983,33.95537
'[17:42:07.236 11/09/2023]',-0.824139,-0.7665052,-31.5849,1.341672E-11,-6.531329,-11.60805,-42.62523,-54.88627
'[17:42:07.244 11/09/2023]',8.069098,3.990893,-19.47409,1.341672E-11,-0.4244337,0.5154818,-19.042,-19.92203
'[17:42:07.252 11/09/2023]',1.112957,1.080835,13.25348,1.341672E-11,5.598693,10.06877,38.99259,23.23737
'[17:42:07.260 11/09/2023]',3.824192,2.451054,-27.04631,1.341672E-11,-6.523046,-6.962181,-13.73425,-20.28175
'[17:42:07.268 11/09/2023]',-0.03645554,-2.041764,-12.47981,1.341672E-11,-3.361967,1.761527,8.701215,8.471483
'[17:42:07.276 11/09/2023]',0.04612993,-0.4419605,15.13435,1.341672E-11,5.018604,8.428116,25.72314,34.51077
'[17:42:07.284 11/09/2023]',-2.86957,-1.034814,-18.19255,1.341672E-11,-4.297234,-1.970399,-33.5644,-26.36738
'[17:42:07.292 11/09/2023]',-0.7580916,-2.14195,-8.662806,1.341672E-11,-8.574698,-0.8105361,-0.1878553,2.488334
'[17:42:07.300 11/09/2023]',5.93428,0.5787593,47.02992,1.341672E-11,11.68375,16.16358,63.95945,61.53578
'[17:42:07.308 11/09/2023]',0.2128534,1.839292,-15.85827,1.341672E-11,-7.918362,-9.995687,-1.09917,1.101124
'[17:42:07.316 11/09/2023]',0.1636598,-3.184506,0.4397976,1.341672E-11,-2.713299,2.129819,20.82527,1.411262
'[17:42:07.324 11/09/2023]',-6.80148,-5.193964,-70.27036,1.341672E-11,-10.16641,-16.59602,-97.51068,-98.26747
'[17:42:07.332 11/09/2023]',1.932843,-8.86191,6.582358,1.341672E-11,-3.17942,-2.917491,29.0826,27.33819
'[17:42:07.340 11/09/2023]',-2.641995,-0.691152,7.596642,1.341672E-11,5.567252,11.60028,22.50385,23.22386
'[17:42:07.348 11/09/2023]',-2.17006,-1.147052,8.409884,1.341672E-11,9.636447,5.018203,2.278978,2.934609
'[17:42:07.356 11/09/2023]',-0.5845194,0.9027206,11.13998,1.341672E-11,-0.3394748,7.631309,16.3166,31.18814
'[17:42:07.364 11/09/2023]',1.786716,0.1500325,-16.3635,1.341672E-11,-1.654047,-3.922961,-42.91844,-47.87848
'[17:42:07.372 11/09/2023]',0.2918842,-2.329798,-37.09778,1.341672E-11,-11.13869,-16.33764,-47.88393,-48.6017
'[17:42:07.380 11/09/2023]',0.2316238,-0.1966698,11.43176,1.341672E-11,0.1882612,-1.895705,-4.048798,-5.377526
'[17:42:07.388 11/09/2023]',49.80785,32.34438,2081.172,1.341672E-11,-13.78611,340.048,1552.785,1484.594
'[17:42:07.396 11/09/2023]',-48.42067,-22.64157,-661.6234,1.341672E-11,-439.3094,-352.1538,-291.9084,-473.712
'[17:42:07.404 11/09/2023]',-30.82217,-13.6724,-1352.579,1.341672E-11,-255.8742,-367.6042,-889.119,-955.5662
'[17:42:07.412 11/09/2023]',-6.991644,-3.41012,-489.7408,1.341672E-11,-14.99616,-87.26182,-361.1606,-341.0243
'[17:42:07.420 11/09/2023]',-3.462916,-2.260644,-64.4422,1.341672E-11,10.43932,-3.307823,-59.15045,-49.41176
'[17:42:07.428 11/09/2023]',-9.644969,-5.882699,-367.4089,1.341672E-11,-65.45468,-102.9193,-239.2344,-263.469
'[17:42:07.436 11/09/2023]',-9.566188,-3.649377,-452.8481,1.341672E-11,-2.171785,-77.60687,-328.3035,-320.1279
'[17:42:07.444 11/09/2023]',14.33121,3.452758,140.6056,1.341672E-11,126.8085,96.55188,32.80484,81.26958
'[17:42:07.452 11/09/2023]',25.80162,10.58636,839.6953,1.341672E-11,166.1759,228.0213,545.5511,585.5019
'[17:42:07.460 11/09/2023]',13.59814,10.32337,784.1631,1.341672E-11,38.77853,156.3702,567.022,551.9321
'[17:42:07.468 11/09/2023]',-12.5904,-5.83507,12.80856,1.341672E-11,-129.9604,-66.89841,95.47108,25.63489
'[17:42:07.476 11/09/2023]',-29.50843,-15.37874,-723.4163,1.341672E-11,-176.0632,-214.391,-433.0847,-506.0885
'[17:42:07.484 11/09/2023]',-5.971007,-4.737416,-726.5021,1.341672E-11,-58.21462,-152.456,-506.1057,-491.0172
'[17:42:07.492 11/09/2023]',9.361261,2.599951,-39.41523,1.341672E-11,91.88309,43.62286,-70.35529,-22.03983
'[17:42:07.500 11/09/2023]',17.60107,8.645195,476.4547,1.341672E-11,135.2688,148.4037,290.6908,336.5977
'[17:42:07.508 11/09/2023]',13.49538,6.617469,512.2563,1.341672E-11,52.43063,115.4518,355.5845,359.7714
'[17:42:07.516 11/09/2023]',-3.217933,-3.643634,98.82783,1.341672E-11,-42.45667,-7.07713,112.0655,71.50561
'[17:42:07.524 11/09/2023]',-6.63664,-1.360252,-242.3268,1.341672E-11,-65.79784,-82.96351,-167.0834,-183.0989
'[17:42:07.532 11/09/2023]',-9.310871,-5.242945,-229.1667,1.341672E-11,-32.56835,-54.591,-142.0405,-131.8244
'[17:42:07.540 11/09/2023]',-0.4307836,-1.241787,-113.0164,1.341672E-11,7.063164,-20.60964,-115.2679,-86.8776
'[17:42:07.548 11/09/2023]',3.020383,5.079787,56.74513,1.341672E-11,16.86783,12.5849,-2.123458,16.20787
'[17:42:07.556 11/09/2023]',6.210239,1.250472,74.42149,1.341672E-11,16.5319,16.75853,46.90461,39.14833
'[17:42:07.564 11/09/2023]',-0.8056555,0.9860106,43.72006,1.341672E-11,2.84483,7.481657,24.9948,21.65512
'[17:42:07.572 11/09/2023]',2.953552,2.631528,12.61551,1.341672E-11,5.752555,2.780111,25.78459,21.27245
'[17:42:07.580 11/09/2023]',0.4017223,-1.048962,22.12848,1.341672E-11,4.872804,10.59047,20.32914,35.30631
'[17:42:07.588 11/09/2023]',-1.887389,-0.9677056,-5.422184,1.341672E-11,-1.415913,-3.794353,1.753232,-19.71955
'[17:42:07.596 11/09/2023]',0.9634836,-1.957729,29.85448,1.341672E-11,-0.04391757,6.721707,52.52033,36.00566
'[17:42:07.604 11/09/2023]',-2.880728,1.033744,-38.5704,1.341672E-11,-5.493823,-13.3876,-26.83215,-13.86977
'[17:42:07.612 11/09/2023]',-1.999215,0.3950143,-17.92814,1.341672E-11,0.4340907,-2.474067,-1.561625,-12.17208
'[17:42:07.620 11/09/2023]',-1.464937,-0.4957272,21.73968,1.341672E-11,12.15566,13.01194,20.10288,22.9831
'[17:42:07.628 11/09/2023]',2.144326,0.7286147,62.78117,1.341672E-11,9.393845,19.24176,79.97921,77.24261
'[17:42:07.636 11/09/2023]',5.581174,0.9943914,37.25177,1.341672E-11,2.449459,6.063359,34.57262,29.2152
'[17:42:07.644 11/09/2023]',0.2268235,1.310463,30.43724,1.341672E-11,3.525735,15.86748,65.49035,69.92301
'[17:42:07.652 11/09/2023]',-0.09145275,-0.8072307,-24.70038,1.341672E-11,-6.719267,-6.111187,-15.01526,-21.77692
'[17:42:07.660 11/09/2023]',-1.268788,-1.838087,-22.50419,1.341672E-11,-8.718136,-6.902006,8.777122,20.86036
'[17:42:07.668 11/09/2023]',-3.42807,0.2358347,-9.629971,1.341672E-11,1.813796,-6.57178,-22.45726,-21.28551
'[17:42:07.676 11/09/2023]',-1.904322,-1.651085,7.740409,1.341672E-11,0.9784687,-2.578392,17.93384,19.428
'[17:42:07.684 11/09/2023]',2.116155,3.180269,22.16867,1.341672E-11,-0.2343795,1.522477,32.979,30.10372
'[17:42:07.692 11/09/2023]',1.897765,2.416698,18.08733,1.341672E-11,2.104647,1.307692,15.66098,7.023604
'[17:42:07.700 11/09/2023]',-2.831305,-1.65679,27.44031,1.341672E-11,-4.605113,0.3873599,24.53703,19.47748
'[17:42:07.708 11/09/2023]',0.908735,2.082939,24.28467,1.341672E-11,1.588211,1.985931,30.40646,32.75019
'[17:42:07.716 11/09/2023]',-3.579584,-2.836693,10.8132,1.341672E-11,1.434749,1.978054,7.15935,-0.1506872
'[17:42:07.724 11/09/2023]',-4.545192,-3.124099,0.8911005,1.341672E-11,0.5980323,8.202576,8.628782,-15.88729
'[17:42:07.732 11/09/2023]',3.649203,1.58487,-2.474537,1.341672E-11,-0.3105603,3.675364,-12.28232,-28.04822
'[17:42:07.740 11/09/2023]',-0.5537291,-0.03281175,-2.215024,1.341672E-11,1.606613,-1.470502,-19.45312,-12.11646
'[17:42:07.748 11/09/2023]',0.3615073,-0.8218388,-3.033175,1.341672E-11,-3.705596,-3.001996,13.00789,-4.054358
'[17:42:07.756 11/09/2023]',-0.2779947,0.1031846,16.90477,1.341672E-11,7.66709,7.41784,18.13912,32.09743
'[17:42:07.764 11/09/2023]',-1.612966,-1.143187,-13.05833,1.341672E-11,-2.972923,-8.028798,-37.3505,-49.09916
'[17:42:07.772 11/09/2023]',-0.09357079,-2.200138,-1.380196,1.341672E-11,-3.653893,1.186573,-2.270868,-16.13231
'[17:42:07.780 11/09/2023]',-2.201355,-3.889584,-1.700904,1.341672E-11,-4.893299,-5.863214,2.685661,7.616992
'[17:42:07.788 11/09/2023]',-0.395181,0.1093846,-47.12224,1.341672E-11,-9.221729,-10.2223,-91.28376,-96.88902
'[17:42:07.796 11/09/2023]',-1.646751,-1.641507,-9.884953,1.341672E-11,-0.9489061,-9.241117,-10.1651,-17.91595
'[17:42:07.804 11/09/2023]',0.2336827,-7.181894,-3.02458,1.341672E-11,-1.007338,-5.538062,-19.1958,-13.23026
'[17:42:07.812 11/09/2023]',1.320307,3.426429,-26.80645,1.341672E-11,-6.642048,-8.051165,-23.88925,-31.64511
'[17:42:07.820 11/09/2023]',0.526895,-1.577052,-13.67205,1.341672E-11,-8.331516,-6.212024,-19.38992,-21.46502
'[17:42:07.828 11/09/2023]',2.926651,2.12987,57.7115,1.341672E-11,9.270661,17.92291,85.17197,84.47073
'[17:42:07.836 11/09/2023]',-1.343888,-2.404281,-38.21451,1.341672E-11,-8.163361,-6.597967,-77.45883,-71.01688
'[17:42:07.844 11/09/2023]',-1.248179,-2.001783,0.9995304,1.341672E-11,-5.924385,-3.094191,42.26692,31.3241
'[17:42:07.852 11/09/2023]',3.272777,1.408668,24.21194,1.341672E-11,5.324072,15.11136,29.9901,29.54593
'[17:42:07.860 11/09/2023]',0.6934792,-0.5835205,6.885848,1.341672E-11,-3.069724,-4.086333,5.448561,4.671291
'[17:42:07.868 11/09/2023]',1.703419,0.5569618,14.37011,1.341672E-11,-5.485217,-2.811231,11.85641,3.722847
'[17:42:07.876 11/09/2023]',-2.848631,0.337099,-58.50784,1.341672E-11,-13.40801,-19.66747,-72.94193,-68.8752
'[17:42:07.884 11/09/2023]',0.9389246,-0.8229237,-18.48022,1.341672E-11,-6.672109,-7.374583,-1.092414,-14.05965
'[17:42:07.892 11/09/2023]',-1.116461,-0.7657455,-28.7895,1.341672E-11,-2.780768,-6.386526,-51.98566,-50.56749
'[17:42:07.900 11/09/2023]',-4.61094,-1.476077,-5.765482,1.341672E-11,-0.164646,-2.989723,-7.917505,-2.171387
'[17:42:07.908 11/09/2023]',-0.9878504,1.042125,4.62848,1.341672E-11,-2.967961,-0.3591416,30.46822,18.90029
'[17:42:07.916 11/09/2023]',1.783258,2.444587,14.15697,1.341672E-11,3.647992,1.289209,17.88605,27.68296
'[17:42:07.924 11/09/2023]',-1.921224,-0.7826575,-3.324423,1.341672E-11,5.478388,6.267321,-21.49903,-30.55335
'[17:42:07.932 11/09/2023]',1.21881,1.260833,-20.22007,1.341672E-11,-6.060825,-9.057087,-13.69779,-15.39196
'[17:42:07.940 11/09/2023]',0.5506192,-0.9782894,-3.045846,1.341672E-11,-8.288913,-1.042307,3.530877,9.523905
'[17:42:07.948 11/09/2023]',0.2734618,-0.9947931,-12.62475,1.341672E-11,1.634524,5.722445,1.740148,2.560153
'[17:42:07.956 11/09/2023]',3.785826,0.6782523,67.88894,1.341672E-11,6.615641,24.25214,107.9264,121.676
'[17:42:07.964 11/09/2023]',-2.554416,-5.710358,-11.15994,1.341672E-11,-3.325492,-1.308543,-2.750008,2.474978
'[17:42:07.972 11/09/2023]',3.320157,2.39452,14.10878,1.341672E-11,0.063092,17.65619,-3.650499,1.385499
'[17:42:07.980 11/09/2023]',1.742486,0.6469573,-3.680461,1.341672E-11,-3.289545,-2.911889,0.8699251,3.774075
'[17:42:07.988 11/09/2023]',2.044385,1.528886,21.26269,1.341672E-11,10.90378,-3.589914,40.53325,49.26497
'[17:42:07.996 11/09/2023]',-1.395046,-3.166884,11.64177,1.341672E-11,-3.845217,4.176649,32.14988,18.93404
'[17:42:08.004 11/09/2023]',3.340801,0.6717402,35.4645,1.341672E-11,9.456843,11.39009,41.12401,37.18906
'[17:42:08.012 11/09/2023]',-1.761646,1.106761,-28.52014,1.341672E-11,-2.157299,-5.807311,-22.70857,-27.03557
'[17:42:08.020 11/09/2023]',-1.878341,0.1921383,13.37525,1.341672E-11,8.112811,11.85681,21.70428,16.27018
'[17:42:08.028 11/09/2023]',1.836066,-1.577914,-17.1219,1.341672E-11,-7.085124,-1.722934,-20.73461,-17.82399
'[17:42:08.036 11/09/2023]',-0.603566,-0.7203201,-6.650158,1.341672E-11,-3.365756,3.403926,-21.70884,-19.49017
'[17:42:08.044 11/09/2023]',0.8503929,1.931092,-42.85409,1.341672E-11,-7.430926,-15.7711,-51.11514,-57.022
'[17:42:08.052 11/09/2023]',5.229877,3.512308,24.13955,1.341672E-11,5.517985,-2.078131,2.240105,11.2067
'[17:42:08.060 11/09/2023]',79.49492,43.64541,2570.742,1.341672E-11,247.5871,487.4296,1799.239,1856.672
'[17:42:08.068 11/09/2023]',-20.04959,-9.392411,405.4124,1.341672E-11,-250.9787,-48.65349,422.9751,266.8726
'[17:42:08.076 11/09/2023]',-31.73011,-13.08807,-881.0208,1.341672E-11,-240.6793,-274.8509,-544.6688,-622.0983
'[17:42:08.084 11/09/2023]',-13.66873,-7.203887,-548.4938,1.341672E-11,-63.63741,-127.0141,-360.1971,-390.3169
'[17:42:08.092 11/09/2023]',-2.096861,-1.020637,-79.33145,1.341672E-11,2.058655,-12.94489,-63.60571,-67.17505
'[17:42:08.100 11/09/2023]',-8.933842,-4.185918,-288.106,1.341672E-11,-69.24392,-85.67249,-189.1732,-217.2205
'[17:42:08.108 11/09/2023]',-15.86653,-6.687685,-552.2816,1.341672E-11,-56.64762,-117.4142,-379.9035,-366.2265
'[17:42:08.116 11/09/2023]',-1.806506,0.6887293,-250.1931,1.341672E-11,61.41482,-13.53675,-216.9664,-168.6591
'[17:42:08.124 11/09/2023]',18.50823,6.718391,509.3115,1.341672E-11,163.8614,165.5086,301.0913,362.1071
'[17:42:08.132 11/09/2023]',20.06523,8.505401,806.1828,1.341672E-11,111.8603,189.7893,540.8559,545.3563
'[17:42:08.140 11/09/2023]',3.514432,1.11194,410.9278,1.341672E-11,-39.41856,49.86044,328.7484,312.7348
'[17:42:08.148 11/09/2023]',-17.6378,-9.800122,-401.0377,1.341672E-11,-153.8422,-150.6599,-272.713,-322.4881
'[17:42:08.156 11/09/2023]',-20.82836,-7.980921,-692.239,1.341672E-11,-101.9041,-168.4344,-468.4526,-495.1459
'[17:42:08.164 11/09/2023]',-4.473565,-3.835644,-342.4596,1.341672E-11,23.31116,-46.13832,-238.4124,-203.3833
'[17:42:08.172 11/09/2023]',9.061125,5.371869,172.6516,1.341672E-11,92.17945,76.69841,83.55534,127.2937
'[17:42:08.180 11/09/2023]',12.56999,5.157533,478.7625,1.341672E-11,79.85567,125.9644,364.549,381.949
'[17:42:08.188 11/09/2023]',6.255046,1.416732,246.9584,1.341672E-11,2.588459,43.35628,188.2242,182.1792
'[17:42:08.196 11/09/2023]',-4.094572,0.7947928,-64.6527,1.341672E-11,-50.81077,-38.79248,-53.55162,-79.38586
'[17:42:08.204 11/09/2023]',-7.878329,-3.467161,-202.2824,1.341672E-11,-43.5648,-52.981,-136.2857,-149.7239
'[17:42:08.212 11/09/2023]',-6.98998,-5.841075,-132.0555,1.341672E-11,-9.485994,-25.63978,-86.19659,-77.51901
'[17:42:08.220 11/09/2023]',7.034206,3.456376,63.46562,1.341672E-11,26.6662,32.94686,102.9618,94.69199
'[17:42:08.228 11/09/2023]',0.3283442,0.8716109,63.29957,1.341672E-11,16.05001,16.10636,-5.406422,-7.259754
'[17:42:08.236 11/09/2023]',-1.078252,-0.2964092,20.89843,1.341672E-11,-0.3742567,2.623989,21.36578,22.08634
'[17:42:08.244 11/09/2023]',-0.6222416,-1.960788,-5.650827,1.341672E-11,-1.679569,-0.7577403,-11.96916,-3.099405
'[17:42:08.252 11/09/2023]',-2.559011,2.491056,16.0869,1.341672E-11,0.1246135,3.393697,34.71875,29.74179
'[17:42:08.260 11/09/2023]',1.882792,3.017834,12.12423,1.341672E-11,-1.172488,1.061514,-0.9611457,4.749461
'[17:42:08.268 11/09/2023]',-5.038273,-4.044451,-15.17729,1.341672E-11,-5.694499,-10.50463,-32.94022,-26.71205
'[17:42:08.276 11/09/2023]',-3.381193,-2.623806,-78.59988,1.341672E-11,-13.40977,-17.35016,-83.2167,-100.3729
'[17:42:08.284 11/09/2023]',-4.115289,-1.137166,-17.38998,1.341672E-11,-4.151018,-1.490831,11.22871,6.957687
'[17:42:08.292 11/09/2023]',1.564138,1.819228,38.88248,1.341672E-11,10.33134,16.97564,46.98366,42.77963
'[17:42:08.300 11/09/2023]',4.196393,3.108422,27.45498,1.341672E-11,10.5702,13.35704,-8.173604,1.605779
'[17:42:08.308 11/09/2023]',-2.231693,-0.9520216,8.749539,1.341672E-11,-5.331455,-2.819732,5.022851,10.449
'[17:42:08.316 11/09/2023]',-0.2000008,0.573717,24.69451,1.341672E-11,1.495713,1.401645,8.078656,1.585998
'[17:42:08.324 11/09/2023]',1.030364,2.103389,-10.16831,1.341672E-11,-4.74271,-8.631861,-14.53585,-17.09125
'[17:42:08.332 11/09/2023]',-3.72923,-2.749542,-32.94067,1.341672E-11,-9.171246,-8.487,-9.568183,-20.24075
'[17:42:08.340 11/09/2023]',-2.644889,-2.276578,-29.5948,1.341672E-11,-1.323244,-6.070708,-61.19876,-63.21589
'[17:42:08.348 11/09/2023]',0.6868677,0.3855926,50.00124,1.341672E-11,10.0245,15.55704,65.20986,64.54675
'[17:42:08.356 11/09/2023]',0.3573282,1.270574,21.42037,1.341672E-11,3.094136,9.497065,-6.370213,2.523105
'[17:42:08.364 11/09/2023]',0.6338507,2.074309,1.535322,1.341672E-11,0.6094623,3.142597,32.8134,27.72131
'[17:42:08.372 11/09/2023]',-0.4213326,-1.009388,14.93468,1.341672E-11,-1.479704,3.016732,33.47748,36.97762
'[17:42:08.380 11/09/2023]',-0.8071264,0.2028613,-22.10799,1.341672E-11,-2.384913,-9.311552,-23.58825,-21.41623
'[17:42:08.388 11/09/2023]',1.049555,-0.2722741,35.42305,1.341672E-11,7.719618,9.029373,74.62206,66.19547
'[17:42:08.396 11/09/2023]',0.1150916,-0.6983348,-9.730822,1.341672E-11,0.2803997,-5.588976,-33.47025,-24.7467
'[17:42:08.404 11/09/2023]',-1.409028,-2.279993,8.736795,1.341672E-11,5.425313,1.506867,4.43654,-4.154022
'[17:42:08.412 11/09/2023]',1.769426,2.55078,-7.627617,1.341672E-11,-1.727969,-4.016811,-6.167323,-0.3003041
'[17:42:08.420 11/09/2023]',2.922173,0.7375872,13.55678,1.341672E-11,-0.1098238,-0.4200386,36.59035,46.39174
'[17:42:08.428 11/09/2023]',0.35794,-2.800456,6.774528,1.341672E-11,0.1153448,2.489964,-0.07192988,-19.45375
'[17:42:08.436 11/09/2023]',-1.492677,-0.7912676,-15.94306,1.341672E-11,1.906658,-1.044215,-2.136428,-9.522597
'[17:42:08.444 11/09/2023]',-0.5269603,-1.032388,-10.67052,1.341672E-11,2.968758,-5.918054,-41.90908,-30.78647
'[17:42:08.452 11/09/2023]',-1.847417,-1.80203,-4.616846,1.341672E-11,1.398256,6.043054,-8.107734,-23.706
'[17:42:08.460 11/09/2023]',-1.076361,-0.7540155,-12.27905,1.341672E-11,-3.046511,-10.55528,-15.84715,-28.44868
'[17:42:08.468 11/09/2023]',1.521754,-0.2079494,7.10624,1.341672E-11,-2.91878,-1.335412,-4.594128,1.205339
'[17:42:08.476 11/09/2023]',4.498661,4.126731,10.49994,1.341672E-11,4.057726,5.960036,3.905332,2.836283
'[17:42:08.484 11/09/2023]',3.447812,-1.184522,19.46291,1.341672E-11,6.009392,7.629851,36.38774,38.01784
'[17:42:08.492 11/09/2023]',-1.283307,-1.112191,-15.30233,1.341672E-11,-8.125579,-6.416377,-37.14444,-30.92061
'[17:42:08.500 11/09/2023]',1.616476,4.417857,-43.61957,1.341672E-11,-3.36645,-9.187602,-36.82646,-43.72036
'[17:42:08.508 11/09/2023]',-0.7554747,0.3280138,-32.43526,1.341672E-11,0.7216531,-7.266568,-35.27109,-34.8568
'[17:42:08.516 11/09/2023]',-4.093827,-0.9551764,11.79377,1.341672E-11,5.605804,5.024824,4.000321,14.06953
'[17:42:08.524 11/09/2023]',-1.46061,0.3749067,-4.169818,1.341672E-11,-0.5972465,-2.567962,-7.636744,-12.31726
'[17:42:08.532 11/09/2023]',-1.301274,1.788337,-5.565595,1.341672E-11,4.111979,-0.15849,-3.736315,6.589878
'[17:42:08.540 11/09/2023]',-1.297677,0.8876817,-20.17904,1.341672E-11,1.147226,-7.262892,-4.884281,7.683025
'[17:42:08.548 11/09/2023]',5.356976,2.104193,33.70271,1.341672E-11,7.561681,9.055861,43.11414,13.54065
'[17:42:08.556 11/09/2023]',0.4834842,-0.7164661,36.48085,1.341672E-11,1.682978,4.124168,57.94111,55.83856
'[17:42:08.564 11/09/2023]',0.6782147,0.7070127,-11.30315,1.341672E-11,-3.48516,-9.468883,-23.22387,-12.83564
'[17:42:08.572 11/09/2023]',1.313562,0.439531,8.746181,1.341672E-11,-3.500068,1.054238,-2.047485,12.25865
'[17:42:08.580 11/09/2023]',0.449585,0.02262825,-13.01942,1.341672E-11,-4.942253,-8.661604,-24.2445,-27.12404
'[17:42:08.588 11/09/2023]',-0.7670515,-2.014368,39.20987,1.341672E-11,8.76073,16.03502,54.49871,52.10627
'[17:42:08.596 11/09/2023]',0.09224244,-0.9171736,-16.67461,1.341672E-11,-1.654744,-2.361831,-10.54393,7.710055
'[17:42:08.604 11/09/2023]',2.496804,-0.04878597,-10.96126,1.341672E-11,-8.679792,-8.791741,-27.77779,-36.59191
'[17:42:08.612 11/09/2023]',-4.372845,-0.3133599,-18.78817,1.341672E-11,-6.084445,-6.039896,-9.104831,-13.21661
'[17:42:08.620 11/09/2023]',-1.428317,0.967158,15.44885,1.341672E-11,6.003327,5.558372,15.92088,13.05247
'[17:42:08.628 11/09/2023]',-3.653028,-4.341459,-58.45934,1.341672E-11,-14.21889,-14.2569,-69.03014,-68.24718
'[17:42:08.636 11/09/2023]',-0.7407267,-1.513745,4.453034,1.341672E-11,-9.26124,-5.103677,-0.07378943,-5.508278
'[17:42:08.644 11/09/2023]',-0.7372246,-0.01708855,32.9446,1.341672E-11,6.101331,6.199197,33.43351,42.31604
'[17:42:08.652 11/09/2023]',0.6726429,1.018815,0.2106489,1.341672E-11,2.607896,4.714609,0.5019336,-9.442722
'[17:42:08.660 11/09/2023]',3.188529,1.62652,24.02927,1.341672E-11,2.547039,7.963344,37.2216,42.88819
'[17:42:08.668 11/09/2023]',-5.396058,-3.091464,-29.34699,1.341672E-11,-5.952579,-3.170832,-12.25653,-6.880928
'[17:42:08.676 11/09/2023]',3.710989,3.350813,34.2883,1.341672E-11,13.12583,12.0174,35.22557,24.83923
'[17:42:08.684 11/09/2023]',-0.09622654,-1.462708,-5.672507,1.341672E-11,-5.071829,-0.4397264,-14.95316,-1.909092
'[17:42:08.692 11/09/2023]',-2.457927,-1.861098,-5.453812,1.341672E-11,-4.691633,2.052809,2.457754,-9.915968
'[17:42:08.700 11/09/2023]',0.7885545,-1.092829,46.82683,1.341672E-11,8.794638,18.68173,58.4291,55.39216
'[17:42:08.708 11/09/2023]',-5.997682,-5.177112,-38.01916,1.341672E-11,-14.77978,-14.79769,-41.3656,-68.17406
'[17:42:08.716 11/09/2023]',-2.186429,0.7493395,-12.4617,1.341672E-11,-1.205561,-4.852841,-33.74571,-29.79552
'[17:42:08.724 11/09/2023]',-0.2366247,0.8892935,6.067225,1.341672E-11,4.390252,-0.4741198,14.64069,25.01672
'[17:42:08.732 11/09/2023]',-0.8138933,-0.7274012,12.10705,1.341672E-11,4.670942,4.219122,32.17649,32.88505
'[17:42:08.740 11/09/2023]',0.8661016,2.861913,-8.138696,1.341672E-11,1.31787,-7.775243,-18.85557,-17.79323
'[17:42:08.748 11/09/2023]',-2.0509,-2.187314,2.481331,1.341672E-11,-0.4332896,-2.866822,-6.13093,-0.9811327
'[17:42:08.756 11/09/2023]',-1.195047,-1.432803,-0.2879505,1.341672E-11,1.181061,5.631926,32.54176,43.05948
'[17:42:08.764 11/09/2023]',40.1378,27.98166,604.4181,1.341672E-11,271.0544,254.5484,331.7978,455.0002
'[17:42:08.772 11/09/2023]',24.99689,10.47364,1046.55,1.341672E-11,164.3898,256.8436,711.5839,736.6862
'[17:42:08.780 11/09/2023]',4.622491,-0.9374454,373.9593,1.341672E-11,-8.07312,64.81659,310.2491,282.2322
'[17:42:08.788 11/09/2023]',-5.462695,-0.6670097,-76.59079,1.341672E-11,-42.58244,-34.76678,-58.18626,-66.81018
'[17:42:08.796 11/09/2023]',2.07215,2.327107,-23.20687,1.341672E-11,-9.253072,-5.446474,-24.10012,-17.88827
'[17:42:08.804 11/09/2023]',2.873737,2.177004,69.50407,1.341672E-11,-6.334279,8.77485,61.80189,50.6251
'[17:42:08.812 11/09/2023]',-8.645595,-4.489465,-116.7285,1.341672E-11,-51.0036,-49.17323,-80.87376,-89.30298
'[17:42:08.820 11/09/2023]',-11.52562,-5.449244,-290.1147,1.341672E-11,-53.73958,-76.82957,-174.5936,-189.96
