Time and date,Fp1,Fp2,F3,F4,T7,T8,F7,F8,AccX,AccY,AccZ,GyroX,GyroY,GyroZ,Battery,Event
[11:46:00.000 29/11/2023],-236434.1,-188947.4,-216849,-262866.5,-242618.8,-212173.5,-241336.2,-243257.4,0.05,-0.02,1.02,-4,-2,-4,99,0
[11:46:00.004 29/11/2023],-236474.3,-188988.5,-216881.7,-262900.8,-242654.6,-212201.7,-241370.5,-243284.8,0.05,-0.02,1.02,-4,-2,-4,99,0
[11:46:00.008 29/11/2023],-236473.1,-188982.9,-216884.4,-262906.6,-242654.7,-212157.9,-241372.4,-243289,0.05,-0.02,1.02,-4,-2,-4,99,0
[11:46:00.012 29/11/2023],-236435.8,-188949,-216848.8,-262876.8,-242626.4,-212128,-241343.8,-243266.8,0.05,-0.02,1.02,-4,-2,-4,99,0
[11:46:00.016 29/11/2023],-236455.4,-188969.1,-216861.4,-262882.4,-242641.7,-212166.6,-241354,-243277.8,0.05,-0.02,1.02,-4,-2,-4,99,0
[11:46:00.020 29/11/2023],-236502.4,-189011.9,-216909.7,-262908.8,-242651.5,-212205.6,-241387.8,-243290.4,0.05,-0.02,1.02,-4,-2,-4,99,0
[11:46:00.024 29/11/2023],-236478.2,-188991.7,-216901.2,-262908.8,-242653.5,-212244.9,-241378.3,-243290.1,0.05,-0.02,1.02,-4,-2,-4,99,0
[11:46:00.028 29/11/2023],-236432.7,-188947.2,-216865.3,-262872.7,-242610.7,-212150.6,-241344.1,-243279.6,0.05,-0.02,1.02,-4,-2,-4,99,0
[11:46:00.032 29/11/2023],-236457,-188962.8,-216890.1,-262884.1,-242644.6,-212153.3,-241360.3,-243287.3,0.05,-0.02,1.02,-4,-2,-4,99,0
[11:46:00.036 29/11/2023],-236434.1,-188947.4,-216849,-262866.5,-242618.8,-212173.5,-241336.2,-243257.4,0.05,-0.02,1.02,-4,-2,-4,99,0
[11:46:00.040 29/11/2023],-236474.3,-188988.5,-216881.7,-262900.8,-242654.6,-212201.7,-241370.5,-243284.8,0.05,-0.02,1.02,-4,-2,-4,99,0
[11:46:00.044 29/11/2023],-236473.1,-188982.9,-216884.4,-262906.6,-242654.7,-212157.9,-241372.4,-243289,0.05,-0.02,1.02,-4,-2,-4,99,0
[11:46:00.048 29/11/2023],-236435.8,-188949,-216848.8,-262876.8,-242626.4,-212128,-241343.8,-243266.8,0.05,-0.02,1.02,-4,-2,-4,99,0
[11:46:00.052 29/11/2023],-236455.4,-188969.1,-216861.4,-262882.4,-242641.7,-212166.6,-241354,-243277.8,0.05,-0.02,1.02,-4,-2,-4,99,0
[11:46:00.056 29/11/2023],-236502.4,-189011.9,-216909.7,-262908.8,-242651.5,-212205.6,-241387.8,-243290.4,0.05,-0.02,1.02,-4,-2,-4,99,0
[11:46:00.060 29/11/2023],-236478.2,-188991.7,-216901.2,-262908.8,-242653.5,-212244.9,-241378.3,-243290.1,0.05,-0.02,1.02,-4,-2,-4,99,0
[11:46:00.064 29/11/2023],-236432.7,-188947.2,-216865.3,-262872.7,-242610.7,-212150.6,-241344.1,-243279.6,0.05,-0.02,1.02,-4,-2,-4,99,0
[11:46:00.068 29/11/2023],-236457,-188962.8,-216890.1,-262884.1,-242644.6,-212153.3,-241360.3,-243287.3,0.05,-0.02,1.02,-4,-2,-4,99,0
[11:46:00.072 29/11/2023],-236516.1,-189013.8,-216948,-262913.6,-242685.1,-212254.5,-241400.4,-243302.1,0.05,0.00,1.02,-4,-2,-4,99,0
[11:46:00.076 29/11/2023],-236522.7,-189015.5,-216959.9,-262928.3,-242695.8,-212274.6,-241409.9,-243306.5,0.05,0.00,1.02,-4,-2,-4,99,0
[11:46:00.080 29/11/2023],-236452.3,-188953.3,-216898.3,-262893.4,-242674.3,-212200.1,-241354.4,-243283,0.05,0.00,1.02,-4,-2,-4,99,0
[11:46:00.084 29/11/2023],-236438.5,-188942.6,-216886.5,-262883.5,-242650.9,-212185.2,-241346,-243283.8,0.05,0.00,1.02,-4,-2,-4,99,0
[11:46:00.088 29/11/2023],-236482.8,-188982.3,-216931.8,-262900,-242646.1,-212197.8,-241380.4,-243292.3,0.05,0.00,1.02,-4,-2,-4,99,0
[11:46:00.092 29/11/2023],-236498.6,-188999.1,-216953,-262923.6,-242671.5,-212278.4,-241395.2,-243299.6,0.05,0.00,1.02,-4,-2,-4,99,0
[11:46:00.096 29/11/2023],-236452.6,-188950.3,-216919.5,-262896.2,-242646.5,-212216.7,-241357.7,-243275.8,0.05,0.00,1.02,-4,-2,-4,99,0
[11:46:00.100 29/11/2023],-236453.8,-188951.9,-216927.2,-262884.2,-242640.4,-212200,-241362.9,-243277.4,0.05,0.00,1.02,-4,-2,-4,99,0
[11:46:00.104 29/11/2023],-236462.5,-188970,-216928.7,-262899.1,-242664.1,-212184.9,-241370.6,-243272.3,0.05,0.00,1.02,-4,-2,-4,99,0
[11:46:00.108 29/11/2023],-236467.6,-188980.9,-216929.2,-262920.8,-242662.2,-212201.2,-241376.1,-243287.8,0.03,0.00,1.02,-4,-2,-4,99,0
[11:46:00.112 29/11/2023],-236431.9,-188954.2,-216905.9,-262899.2,-242664.6,-212191.5,-241356.6,-243281.5,0.03,0.00,1.02,-4,-2,-4,99,0
[11:46:00.116 29/11/2023],-236430,-188951.9,-216896.3,-262883.3,-242693.6,-212197.9,-241350.5,-243273.6,0.03,0.00,1.02,-4,-2,-4,99,0
[11:46:00.120 29/11/2023],-236476.8,-188985.6,-216932.7,-262897.9,-242701.2,-212216.5,-241381,-243281.3,0.03,0.00,1.02,-4,-2,-4,99,0
[11:46:00.124 29/11/2023],-236491.7,-188994.3,-216956.5,-262910.9,-242680.5,-212256.5,-241393.4,-243283.5,0.03,0.00,1.02,-4,-2,-4,99,0
[11:46:00.128 29/11/2023],-236435.5,-188951.8,-216919.9,-262896.5,-242654.8,-212236.6,-241358.2,-243270.7,0.03,0.00,1.02,-4,-2,-4,99,0
[11:46:00.132 29/11/2023],-236417.3,-188909,-216903.2,-262872,-242650.4,-212191.3,-241336.1,-243257.4,0.03,0.00,1.02,-4,-2,-4,99,0
[11:46:00.136 29/11/2023],-236438.7,-188924.7,-216914.5,-262878.2,-242688.3,-212192.5,-241354.2,-243258.2,0.03,0.00,1.02,-4,-2,-4,99,0
[11:46:00.140 29/11/2023],-236443.7,-188924.4,-216926.4,-262881.6,-242693,-212208.8,-241362.7,-243261.7,0.03,0.00,1.02,-4,-2,-4,99,0
[11:46:00.144 29/11/2023],-236426.7,-188939.9,-216891.8,-262896.6,-242700,-212188.1,-241347.9,-243273.5,0.03,0.00,1.00,-4,-2,-4,99,0
[11:46:00.148 29/11/2023],-236408.8,-188913,-216877.7,-262857.1,-242680.6,-212241.6,-241331.2,-243247,0.03,0.00,1.00,-4,-2,-4,99,0
[11:46:00.152 29/11/2023],-236424.8,-188923.2,-216894.9,-262864.9,-242687.4,-212215.5,-241339.3,-243258.8,0.03,0.00,1.00,-4,-2,-4,99,0
[11:46:00.156 29/11/2023],-236454.2,-188946.4,-216919.8,-262895.6,-242685.8,-212213.9,-241362.1,-243273.8,0.03,0.00,1.00,-4,-2,-4,99,0
[11:46:00.160 29/11/2023],-236449.8,-188945.5,-216928.1,-262897.9,-242683.9,-212240.5,-241361.8,-243273.9,0.03,0.00,1.00,-4,-2,-4,99,0
[11:46:00.164 29/11/2023],-236404.6,-188899.5,-216894.4,-262866.7,-242658.2,-212188.7,-241325.7,-243255.2,0.03,0.00,1.00,-4,-2,-4,99,0
[11:46:00.168 29/11/2023],-236453.1,-188949,-216942.8,-262874.8,-242656.5,-212246.8,-241372.3,-243278.2,0.03,0.00,1.00,-4,-2,-4,99,0
[11:46:00.172 29/11/2023],-236466.7,-188963.1,-216960.1,-262892,-242667.2,-212230.9,-241392.4,-243299.4,0.03,0.00,1.00,-4,-2,-4,99,0
[11:46:00.176 29/11/2023],-236413.2,-188917.6,-216915.1,-262865.1,-242624,-212169.3,-241353,-243273.1,0.03,0.00,1.00,-4,-2,-4,99,0
[11:46:00.180 29/11/2023],-236382.5,-188869.2,-216869.5,-262827.1,-242633.6,-212170.7,-241308.7,-243222.6,0.03,-0.02,1.02,-4,-2,-4,99,0
[11:46:00.184 29/11/2023],-236396.3,-188889.5,-216881.2,-262828.3,-242638.9,-212162.2,-241320.7,-243237.4,0.03,-0.02,1.02,-4,-2,-4,99,0
[11:46:00.188 29/11/2023],-236429.4,-188921.8,-216908.1,-262846.7,-242649.6,-212194.5,-241347.6,-243252.6,0.03,-0.02,1.02,-4,-2,-4,99,0
[11:46:00.192 29/11/2023],-236435.5,-188930,-216924.8,-262868.9,-242671.2,-212184.1,-241358.9,-243266.5,0.03,-0.02,1.02,-4,-2,-4,99,0
[11:46:00.196 29/11/2023],-236358.2,-188859.5,-216863.3,-262824.1,-242622.6,-212170,-241300,-243240.6,0.03,-0.02,1.02,-4,-2,-4,99,0
[11:46:00.200 29/11/2023],-236392.3,-188886.9,-216895.8,-262846.9,-242604.5,-212196.2,-241333.6,-243256.4,0.03,-0.02,1.02,-4,-2,-4,99,0
[11:46:00.204 29/11/2023],-236424.7,-188919.6,-216926.1,-262875.6,-242616.4,-212205.9,-241358.8,-243271.3,0.03,-0.02,1.02,-4,-2,-4,99,0
[11:46:00.208 29/11/2023],-236413.2,-188917.9,-216909.4,-262888.8,-242632.7,-212172.3,-241346.6,-243284,0.03,-0.02,1.02,-4,-2,-4,99,0
[11:46:00.212 29/11/2023],-236380.2,-188889.1,-216863,-262853.8,-242617,-212138.9,-241315.5,-243264.4,0.03,-0.02,1.02,-4,-2,-4,99,0
[11:46:00.216 29/11/2023],-236377,-188580.2,-216959.8,-262850,-242723.8,-212208.6,-241395.5,-243316.7,0.05,0.00,1.02,-4,-2,-4,99,0
[11:46:00.220 29/11/2023],-236339.9,-188544.4,-216915.3,-262817.6,-242704.8,-212209.2,-241363.2,-243288.4,0.05,0.00,1.02,-4,-2,-4,99,0
[11:46:00.224 29/11/2023],-236325.4,-188528.8,-216897,-262789.3,-242673.8,-212210,-241341,-243261.5,0.05,-0.02,1.02,-4,-2,-4,99,0
[11:46:00.228 29/11/2023],-236364.3,-188573.1,-216941.4,-262834.1,-242667.4,-212217.1,-241368.6,-243295.3,0.05,-0.02,1.00,-4,-2,-4,99,0
[11:46:00.232 29/11/2023],-236386,-188597.7,-216969.4,-262853.9,-242685.4,-212262.3,-241385.2,-243308.7,0.05,-0.02,1.00,-4,-2,-4,99,0
[11:46:00.236 29/11/2023],-236339.8,-188549.2,-216918.9,-262836.4,-242680.1,-212227.2,-241349.6,-243292.7,0.05,-0.02,1.00,-4,-2,-4,99,0
[11:46:00.240 29/11/2023],-236315,-188522.9,-216893.3,-262791.7,-242623.9,-212181.2,-241324.8,-243258.8,0.05,-0.02,1.00,-4,-2,-4,99,0
[11:46:00.244 29/11/2023],-236327.3,-188547.2,-216915.3,-262806.5,-242655.2,-212171.9,-241341.9,-243270.4,0.05,-0.02,1.00,-4,-2,-4,99,0
[11:46:00.248 29/11/2023],-236342.1,-188569.9,-216937.3,-262828.7,-242691.6,-212158.5,-241363.7,-243284.9,0.05,-0.02,1.00,-4,-2,-4,99,0
[11:46:00.252 29/11/2023],-236377,-188580.2,-216959.8,-262850,-242723.8,-212208.6,-241395.5,-243316.7,0.05,-0.02,1.00,-4,-2,-4,99,0
[11:46:00.256 29/11/2023],-236339.9,-188544.4,-216915.3,-262817.6,-242704.8,-212209.2,-241363.2,-243288.4,0.05,-0.02,1.00,-4,-2,-4,99,0
[11:46:00.260 29/11/2023],-236325.4,-188528.8,-216897,-262789.3,-242673.8,-212210,-241341,-243261.5,0.05,-0.02,1.00,-4,-2,-4,99,0
[11:46:00.264 29/11/2023],-236319.5,-188567.8,-216902.7,-262829.7,-242622.7,-212126.3,-241349.8,-243284,0.03,-0.02,1.02,-4,-2,-4,99,0
[11:46:00.268 29/11/2023],-236307.8,-188566.3,-216898.1,-262834.7,-242644.7,-212194.6,-241347.5,-243275.6,0.03,-0.02,1.02,-4,-2,-4,99,0
[11:46:00.272 29/11/2023],-236270.2,-188533.6,-216862.4,-262786.4,-242595.6,-212171.8,-241312.8,-243244.5,0.03,-0.02,1.02,-4,-2,-4,99,0
[11:46:00.276 29/11/2023],-236282.4,-188542.4,-216872.1,-262788.4,-242593.1,-212145.2,-241314.8,-243248.5,0.03,-0.02,1.02,-4,-2,-4,99,0
[11:46:00.280 29/11/2023],-236296.9,-188561.2,-216886.5,-262812.6,-242603.2,-212121.7,-241321.5,-243258.7,0.03,-0.02,1.02,-4,-2,-4,99,0
[11:46:00.284 29/11/2023],-236291.6,-188565.2,-216880.3,-262833.8,-242569.9,-212073.6,-241318.5,-243279.7,0.03,-0.02,1.02,-4,-2,-4,99,0
[11:46:00.288 29/11/2023],-236310.8,-188549.3,-216912.8,-262828.2,-242682.9,-212130.2,-241347.6,-243281.3,0.03,-0.02,1.02,-4,-2,-4,99,0
[11:46:00.292 29/11/2023],-236263.9,-188507.9,-216862.2,-262781.1,-242591.3,-212096.4,-241302.8,-243253.4,0.03,-0.02,1.02,-4,-2,-4,99,0
[11:46:00.296 29/11/2023],-236286.4,-188529.2,-216876.7,-262804,-242598.9,-212145,-241322.9,-243278.2,0.03,-0.02,1.02,-4,-2,-4,99,0
[11:46:00.300 29/11/2023],-236319.5,-188567.8,-216902.7,-262829.7,-242622.7,-212126.3,-241349.8,-243284,0.03,-0.02,1.02,-4,-2,-4,99,0
[11:46:00.304 29/11/2023],-236307.8,-188566.3,-216898.1,-262834.7,-242644.7,-212194.6,-241347.5,-243275.6,0.03,-0.02,1.02,-4,-2,-4,99,0
[11:46:00.308 29/11/2023],-236270.2,-188533.6,-216862.4,-262786.4,-242595.6,-212171.8,-241312.8,-243244.5,0.03,-0.02,1.02,-4,-2,-4,99,0
[11:46:00.312 29/11/2023],-236282.4,-188542.4,-216872.1,-262788.4,-242593.1,-212145.2,-241314.8,-243248.5,0.03,-0.02,1.02,-4,-2,-4,99,0
[11:46:00.316 29/11/2023],-236323.9,-188595.4,-216909.2,-262837,-242579.6,-212128.3,-241350.2,-243284.8,0.03,-0.02,1.02,-4,-2,-4,99,0
[11:46:00.320 29/11/2023],-236277.3,-188567.6,-216883,-262816.7,-242589.5,-212113.7,-241317,-243272.3,0.03,-0.02,1.02,-4,-2,-4,99,0
[11:46:00.324 29/11/2023],-236260.7,-188539.5,-216849.6,-262806.3,-242519.4,-212029.3,-241292.3,-243266.4,0.05,0.00,1.02,-4,-2,-4,99,0
[11:46:00.328 29/11/2023],-236293,-188562.3,-216882.2,-262813.5,-242542.4,-212129.9,-241312.5,-243276,0.05,0.00,1.02,-4,-2,-4,99,0
[11:46:00.332 29/11/2023],-236320,-188590.3,-216901.8,-262838.5,-242558.8,-212139.5,-241328.6,-243292.1,0.05,0.00,1.02,-4,-2,-4,99,0
[11:46:00.336 29/11/2023],-236316.8,-188593.1,-216902.2,-262861.3,-242592.2,-212114.6,-241337.5,-243315.6,0.05,0.00,1.02,-4,-2,-4,99,0
[11:46:00.340 29/11/2023],-236254.7,-188530.9,-216840.5,-262819.1,-242558.3,-212024.2,-241289.9,-243280.8,0.05,0.00,1.02,-4,-2,-4,99,0
[11:46:00.344 29/11/2023],-236266.3,-188539.2,-216846.5,-262799.8,-242537.3,-212068.7,-241298,-243266.3,0.05,0.00,1.02,-4,-2,-4,99,0
[11:46:00.348 29/11/2023],-236301.3,-188565.8,-216880.3,-262811.4,-242554.1,-212128.8,-241329.6,-243262.4,0.05,0.00,1.02,-4,-2,-4,99,0
[11:46:00.352 29/11/2023],-236323.9,-188595.4,-216909.2,-262837,-242579.6,-212128.3,-241350.2,-243284.8,0.05,0.00,1.02,-4,-2,-4,99,0
[11:46:00.356 29/11/2023],-236277.3,-188567.6,-216883,-262816.7,-242589.5,-212113.7,-241317,-243272.3,0.05,0.00,1.02,-4,-2,-4,99,0
[11:46:00.360 29/11/2023],-236276.1,-188573.1,-216890.8,-262789.5,-242591.1,-212129.2,-241313.3,-243249.9,0.05,-0.02,1.02,-4,-2,-4,99,0
[11:46:00.364 29/11/2023],-236326,-188621.5,-216935.3,-262822.8,-242630,-212154.3,-241354.5,-243274.9,0.05,-0.02,1.02,-4,-2,-4,99,0
[11:46:00.368 29/11/2023],-236315.5,-188631.3,-216902.5,-262861,-242702,-212150.9,-241364.5,-243284.4,0.05,-0.02,1.02,-4,-2,-4,99,0
[11:46:00.372 29/11/2023],-236268.8,-188593.2,-216854.4,-262820.1,-242646.2,-212150.6,-241328,-243254.2,0.05,-0.02,1.02,-4,-2,-4,99,0
[11:46:00.376 29/11/2023],-236274.9,-188602.3,-216862.2,-262825.5,-242649,-212157.5,-241334.7,-243259.6,0.05,-0.02,1.02,-4,-2,-4,99,0
[11:46:00.380 29/11/2023],-236302.4,-188626.2,-216891.6,-262830.7,-242659.7,-212141.3,-241348.5,-243261.7,0.05,-0.02,1.02,-4,-2,-4,99,0
[11:46:00.384 29/11/2023],-236292.4,-188626.8,-216892.9,-262848.8,-242658.8,-212062.8,-241343.7,-243277.6,0.03,0.00,1.03,-4,-2,-4,99,0
[11:46:00.388 29/11/2023],-236237.7,-188587.2,-216847.5,-262817.3,-242636,-212079.2,-241304.4,-243252.3,0.03,0.00,1.03,-4,-2,-4,99,0
[11:46:00.392 29/11/2023],-236246.6,-188595,-216854.1,-262801.6,-242611.5,-212131.6,-241308.5,-243235.1,0.03,0.00,1.03,-4,-2,-4,99,0
[11:46:00.396 29/11/2023],-236320.5,-188619.8,-216902,-262837.9,-242668.7,-212175.8,-241355.7,-243276.8,0.03,0.00,1.03,-4,-2,-4,99,0
[11:46:00.400 29/11/2023],-236340.9,-188640.9,-216925.2,-262850.1,-242696.3,-212152.5,-241372.2,-243277.8,0.03,0.00,1.03,-4,-2,-4,99,0
[11:46:00.404 29/11/2023],-236315.5,-188631.3,-216902.5,-262861,-242702,-212150.9,-241364.5,-243284.4,0.03,0.00,1.03,-4,-2,-4,99,0
[11:46:00.408 29/11/2023],-236268.8,-188593.2,-216854.4,-262820.1,-242646.2,-212150.6,-241328,-243254.2,0.03,0.00,1.03,-4,-2,-4,99,0
[11:46:00.412 29/11/2023],-236274.9,-188602.3,-216862.2,-262825.5,-242649,-212157.5,-241334.7,-243259.6,0.03,0.00,1.03,-4,-2,-4,99,0
[11:46:00.416 29/11/2023],-236302.4,-188626.2,-216891.6,-262830.7,-242659.7,-212141.3,-241348.5,-243261.7,0.03,0.00,1.03,-4,-2,-4,99,0
[11:46:00.420 29/11/2023],-236292.4,-188626.8,-216892.9,-262848.8,-242658.8,-212062.8,-241343.7,-243277.6,0.03,0.00,1.03,-4,-2,-4,99,0
[11:46:00.424 29/11/2023],-236220.8,-188588,-216802,-262807.2,-242636.4,-212059.5,-241291.1,-243229,0.03,0.00,1.03,-4,-2,-4,99,0
[11:46:00.428 29/11/2023],-236249,-188620.7,-216835.7,-262821.9,-242636.1,-212137.8,-241318.8,-243236,0.03,0.00,1.03,-4,-2,-4,99,0
[11:46:00.432 29/11/2023],-236277.1,-188621,-216871,-262820.3,-242642.4,-212162.4,-241331.4,-243245.4,0.03,0.00,1.02,-4,-2,-4,99,0
[11:46:00.436 29/11/2023],-236302.8,-188642.5,-216893.3,-262840.8,-242665.8,-212173.1,-241353.2,-243258.8,0.03,0.00,1.02,-4,-2,-4,99,0
[11:46:00.440 29/11/2023],-236248.4,-188596.9,-216836.1,-262818.4,-242646.8,-212141.7,-241310.7,-243233.2,0.03,0.00,1.02,-4,-2,-4,99,0
[11:46:00.444 29/11/2023],-236259.6,-188608.1,-216844.4,-262811.5,-242644.4,-212136.4,-241317.7,-243236.2,0.03,0.00,1.02,-4,-2,-4,99,0
[11:46:00.448 29/11/2023],-236287.3,-188638.6,-216863.4,-262834,-242640,-212114.4,-241338.6,-243254.3,0.03,0.00,1.02,-4,-2,-4,99,0
[11:46:00.452 29/11/2023],-236293.7,-188650.2,-216871,-262856.3,-242666.4,-212102,-241344.3,-243270.4,0.03,0.00,1.02,-4,-2,-4,99,0
[11:46:00.456 29/11/2023],-236239.3,-188599.6,-216821.4,-262834.3,-242658.1,-212092.7,-241305.8,-243245.5,0.03,0.00,1.02,-4,-2,-4,99,0
[11:46:00.460 29/11/2023],-236220.8,-188588,-216802,-262807.2,-242636.4,-212059.5,-241291.1,-243229,0.03,0.00,1.02,-4,-2,-4,99,0
[11:46:00.464 29/11/2023],-236249,-188620.7,-216835.7,-262821.9,-242636.1,-212137.8,-241318.8,-243236,0.03,0.00,1.02,-4,-2,-4,99,0
[11:46:00.468 29/11/2023],-236269.2,-188645.3,-216857.6,-262836,-242653.2,-212189,-241339.5,-243243.3,0.05,-0.02,1.00,-4,-2,-4,99,0
[11:46:00.472 29/11/2023],-236228.4,-188615.7,-216814.8,-262816.8,-242661.4,-212126.3,-241305.2,-243235.1,0.05,-0.02,1.00,-4,-2,-4,99,0
[11:46:00.476 29/11/2023],-236214,-188609.6,-216799.2,-262793.9,-242644.2,-212082.5,-241288.1,-243230.4,0.05,-0.02,1.00,-4,-2,-4,99,0
[11:46:00.480 29/11/2023],-236247.4,-188643.8,-216830.4,-262824.1,-242656.5,-212046,-241316.7,-243255.8,0.05,-0.02,1.00,-4,-2,-4,99,0
[11:46:00.484 29/11/2023],-236281.9,-188682.9,-216866.4,-262845.6,-242668.7,-212153.9,-241343.2,-243259.5,0.05,-0.02,1.00,-4,-2,-4,99,0
[11:46:00.488 29/11/2023],-236266.5,-188673.3,-216854.9,-262847.2,-242677.6,-212190.6,-241333.7,-243258,0.05,-0.02,1.00,-4,-2,-4,99,0
[11:46:00.492 29/11/2023],-236245.3,-188655.6,-216827.2,-262805.6,-242651.5,-212105.6,-241303.3,-243245.4,0.05,-0.02,1.00,-4,-2,-4,99,0
[11:46:00.496 29/11/2023],-236276.9,-188688.1,-216848.8,-262828.4,-242664.8,-212143.2,-241328,-243269,0.05,-0.02,1.00,-4,-2,-4,99,0
[11:46:00.500 29/11/2023],-236293.3,-188709.2,-216859.3,-262840.5,-242672.4,-212162.5,-241342.9,-243272.2,0.05,-0.02,1.00,-4,-2,-4,99,0
[11:46:00.504 29/11/2023],-236292.8,-188703.6,-216856.2,-262838.8,-242684.1,-212173.3,-241346.3,-243268.4,0.02,0.00,1.02,-4,-2,-4,99,0
[11:46:00.508 29/11/2023],-236259.2,-188662.8,-216807.8,-262795.9,-242662.2,-212145.2,-241312.2,-243245.2,0.02,0.00,1.02,-4,-2,-4,99,0
[11:46:00.512 29/11/2023],-236260.7,-188663.4,-216795.2,-262793.6,-242661.1,-212142.1,-241312.8,-243239.5,0.02,0.00,1.02,-4,-2,-4,99,0
[11:46:00.516 29/11/2023],-236297.9,-188694.5,-216828.4,-262802.6,-242654,-212134.6,-241346.8,-243242.8,0.02,0.00,1.02,-4,-2,-4,99,0
[11:46:00.520 29/11/2023],-236318.5,-188724.9,-216852.8,-262836.9,-242670.9,-212141.3,-241365.6,-243273.2,0.02,0.00,1.02,-4,-2,-4,99,0
[11:46:00.524 29/11/2023],-236261.4,-188677.2,-216802.4,-262803.9,-242667,-212105.5,-241312.8,-243248.3,0.02,0.00,1.02,-4,-2,-4,99,0
[11:46:00.528 29/11/2023],-236281,-188693,-216821,-262808.9,-242674.9,-212126.4,-241324.6,-243260.2,0.02,0.00,1.02,-4,-2,-4,99,0
[11:46:00.532 29/11/2023],-236316.8,-188717,-216845.3,-262823.1,-242676.7,-212139.8,-241349.8,-243265.9,0.02,0.00,1.02,-4,-2,-4,99,0
[11:46:00.536 29/11/2023],-236336.4,-188733.4,-216869.8,-262844.8,-242701.5,-212105.9,-241368.3,-243281.8,0.02,0.00,1.02,-4,-2,-4,99,0
[11:46:00.540 29/11/2023],-236285.7,-188691,-216829.6,-262818.3,-242674.9,-212066.5,-241329.9,-243263.1,0.05,-0.02,1.00,-4,-2,-4,99,0
[11:46:00.544 29/11/2023],-236290.2,-188702.4,-216831.6,-262801.4,-242656.8,-212158.4,-241328.3,-243253.8,0.05,-0.02,1.00,-4,-2,-4,99,0
[11:46:00.548 29/11/2023],-236340.1,-188753.6,-216880,-262831.4,-242676.8,-212182.2,-241368.8,-243279.2,0.05,-0.02,1.00,-4,-2,-4,99,0
[11:46:00.552 29/11/2023],-236338.3,-188761.1,-216873.4,-262847.1,-242688,-212166.3,-241372.4,-243286.1,0.05,-0.02,1.00,-4,-2,-4,99,0
[11:46:00.556 29/11/2023],-236309.4,-188746.3,-216844.6,-262825,-242702.8,-212113,-241346.5,-243276,0.05,-0.02,1.00,-4,-2,-4,99,0
[11:46:00.560 29/11/2023],-236293.7,-188728.3,-216829.2,-262790.2,-242691.3,-212116.5,-241328.1,-243242.5,0.05,-0.02,1.00,-4,-2,-4,99,0
[11:46:00.564 29/11/2023],-236375.5,-188826.8,-216898.4,-262858.8,-242712.3,-212135.1,-241397.2,-243294.9,0.05,-0.02,1.00,-4,-2,-4,99,0
[11:46:00.568 29/11/2023],-236357.3,-188816.4,-216884.3,-262856,-242702.5,-212147.2,-241381.9,-243293.4,0.05,-0.02,1.00,-4,-2,-4,99,0
[11:46:00.572 29/11/2023],-236310.2,-188768.2,-216833.3,-262797.1,-242683,-212166.6,-241337.8,-243242.3,0.05,-0.02,1.00,-4,-2,-4,99,0
[11:46:00.576 29/11/2023],-236296.7,-188725,-216834.3,-262795.6,-242652.1,-212131.2,-241331.2,-243245.6,0.03,0.00,1.02,-4,-2,-4,99,0
[11:46:00.580 29/11/2023],-236333.3,-188763.5,-216861.8,-262819.1,-242652.4,-212124.8,-241354.3,-243265.3,0.03,0.00,1.02,-4,-2,-4,99,0
[11:46:00.584 29/11/2023],-236369,-188802,-216884.9,-262843.6,-242680.6,-212168.4,-241380.1,-243278,0.03,0.00,1.02,-4,-2,-4,99,0
[11:46:00.588 29/11/2023],-236346,-188788.8,-216869.4,-262834.8,-242688.1,-212181.3,-241369.5,-243273.3,0.03,0.00,1.02,-4,-2,-4,99,0
[11:46:00.592 29/11/2023],-236314.5,-188768.2,-216847.8,-262810.8,-242683.4,-212119.4,-241346.3,-243265,0.03,0.00,1.02,-4,-2,-4,99,0
[11:46:00.596 29/11/2023],-236351.6,-188803.8,-216879.2,-262833,-242710.8,-212145.4,-241376.3,-243277.9,0.03,0.00,1.02,-4,-2,-4,99,0
[11:46:00.600 29/11/2023],-236375.5,-188826.8,-216898.4,-262858.8,-242712.3,-212135.1,-241397.2,-243294.9,0.03,0.00,1.02,-4,-2,-4,99,0
[11:46:00.604 29/11/2023],-236357.3,-188816.4,-216884.3,-262856,-242702.5,-212147.2,-241381.9,-243293.4,0.03,0.00,1.02,-4,-2,-4,99,0
[11:46:00.608 29/11/2023],-236310.2,-188768.2,-216833.3,-262797.1,-242683,-212166.6,-241337.8,-243242.3,0.03,0.00,1.02,-4,-2,-4,99,0
[11:46:00.612 29/11/2023],-236324.7,-188784.5,-216838.9,-262798.9,-242667.1,-212179.8,-241351.8,-243252.3,0.05,0.00,1.02,-4,-2,-4,99,0
[11:46:00.616 29/11/2023],-236343.4,-188811.3,-216854.5,-262827.7,-242653,-212130.8,-241367.4,-243271.3,0.05,0.00,1.02,-4,-2,-4,99,0
[11:46:00.620 29/11/2023],-236327.2,-188802,-216836.9,-262836.4,-242684.5,-212112.2,-241360.1,-243269.5,0.05,0.00,1.02,-4,-2,-4,99,0
[11:46:00.624 29/11/2023],-236274,-188767.1,-216779.3,-262776.8,-242636,-212131,-241302.8,-243224.4,0.05,0.00,1.02,-4,-2,-4,99,0
[11:46:00.628 29/11/2023],-236300.8,-188793.4,-216799.6,-262790.6,-242645.6,-212147.9,-241319.5,-243231.6,0.05,0.00,1.02,-4,-2,-4,99,0
[11:46:00.632 29/11/2023],-236346.7,-188838.8,-216835.3,-262822.4,-242658.9,-212150.8,-241353.4,-243263.7,0.05,0.00,1.02,-4,-2,-4,99,0
[11:46:00.636 29/11/2023],-236317.7,-188823,-216819.7,-262820.3,-242658.5,-212122.8,-241335.2,-243271.7,0.05,0.00,1.02,-4,-2,-4,99,0
[11:46:00.640 29/11/2023],-236281.3,-188794.5,-216783.4,-262788,-242657.9,-212100.9,-241304.5,-243253.8,0.05,0.00,1.02,-4,-2,-4,99,0
[11:46:00.644 29/11/2023],-236315.2,-188840.7,-216821.6,-262798.2,-242663.9,-212103.3,-241335.9,-243265.7,0.05,0.00,1.02,-4,-2,-4,99,0
[11:46:00.648 29/11/2023],-236359.4,-188882.4,-216863.2,-262818.6,-242693.9,-212096.2,-241372.2,-243282.6,0.03,0.00,1.02,-4,-2,-4,99,0
[11:46:00.652 29/11/2023],-236344.2,-188868.7,-216845.9,-262820.6,-242671.9,-212116.6,-241361.2,-243277.6,0.03,0.00,1.02,-4,-2,-4,99,0
[11:46:00.656 29/11/2023],-236307.4,-188839.9,-216812.7,-262782.4,-242648.8,-212096.2,-241330,-243253.8,0.03,0.00,1.02,-4,-2,-4,99,0
[11:46:00.660 29/11/2023],-236334,-188862.2,-216843,-262794,-242662.2,-212094.3,-241349.3,-243270.3,0.03,0.00,1.02,-4,-2,-4,99,0
[11:46:00.664 29/11/2023],-236388.5,-188908,-216897.5,-262821.8,-242690.2,-212133,-241392,-243302.3,0.03,0.00,1.02,-4,-2,-4,99,0
[11:46:00.668 29/11/2023],-236391.5,-188915,-216905.7,-262830,-242689.4,-212151.1,-241396.9,-243318.6,0.03,0.00,1.02,-4,-2,-4,99,0
[11:46:00.672 29/11/2023],-236337.4,-188872.8,-216854.3,-262770.9,-242664.6,-212106,-241348.5,-243263.6,0.03,0.00,1.02,-4,-2,-4,99,0
[11:46:00.676 29/11/2023],-236343.4,-188878.2,-216862.3,-262771.3,-242677.2,-212129.3,-241359.3,-243262.2,0.03,0.00,1.02,-4,-2,-4,99,0
[11:46:00.680 29/11/2023],-236391.5,-188906,-216897.8,-262788.1,-242688.1,-212165,-241394.5,-243278.8,0.03,0.00,1.02,-4,-2,-4,99,0
[11:46:00.684 29/11/2023],-236359.4,-188882.4,-216863.2,-262818.6,-242693.9,-212096.2,-241372.2,-243282.6,0.03,0.00,1.02,-4,-2,-4,99,0
[11:46:00.688 29/11/2023],-236344.2,-188868.7,-216845.9,-262820.6,-242671.9,-212116.6,-241361.2,-243277.6,0.03,0.00,1.02,-4,-2,-4,99,0
[11:46:00.692 29/11/2023],-236307.4,-188839.9,-216812.7,-262782.4,-242648.8,-212096.2,-241330,-243253.8,0.03,0.00,1.02,-4,-2,-4,99,0
[11:46:00.696 29/11/2023],-236334,-188862.2,-216843,-262794,-242662.2,-212094.3,-241349.3,-243270.3,0.03,0.00,1.02,-4,-2,-4,99,0
[11:46:00.700 29/11/2023],-236388.5,-188908,-216897.5,-262821.8,-242690.2,-212133,-241392,-243302.3,0.03,0.00,1.02,-4,-2,-4,99,0
[11:46:00.704 29/11/2023],-236391.5,-188915,-216905.7,-262830,-242689.4,-212151.1,-241396.9,-243318.6,0.03,0.00,1.02,-4,-2,-4,99,0
[11:46:00.708 29/11/2023],-236337.4,-188872.8,-216854.3,-262770.9,-242664.6,-212106,-241348.5,-243263.6,0.03,0.00,1.02,-4,-2,-4,99,0
[11:46:00.712 29/11/2023],-236371.1,-188877.3,-216884.4,-262774.5,-242658.6,-212129.3,-241359.3,-243262.2,0.03,0.00,1.02,-4,-2,-4,99,0
[11:46:00.716 29/11/2023],-236396.1,-188912.6,-216907.4,-262784.6,-242664.9,-212181.1,-241396.1,-243268.5,0.03,0.00,1.02,-4,-2,-4,99,0
[11:46:00.720 29/11/2023],-236401,-188922.3,-216910.1,-262826.7,-242700.5,-212180.8,-241400.3,-243294.3,0.05,0.00,1.02,-4,-2,-4,99,0
[11:46:00.724 29/11/2023],-236342.9,-188869.3,-216864.7,-262789.5,-242665.2,-212111.8,-241351.7,-243259.9,0.05,0.00,1.02,-4,-2,-4,99,0
[11:46:00.728 29/11/2023],-236377.5,-188883.6,-216896.1,-262786.9,-242687.5,-212142.6,-241382.5,-243278.7,0.05,0.00,1.02,-4,-2,-4,99,0
[11:46:00.732 29/11/2023],-236407.5,-188909,-216916.3,-262794.4,-242701.1,-212154.8,-241405.5,-243282.4,0.05,0.00,1.02,-4,-2,-4,99,0
[11:46:00.736 29/11/2023],-236410.5,-188922.1,-216928.5,-262814.3,-242694.3,-212161,-241416.1,-243297.3,0.05,0.00,1.02,-4,-2,-4,99,0
[11:46:00.740 29/11/2023],-236350.8,-188874.6,-216873.1,-262791.8,-242653.3,-212021.2,-241367.9,-243281.6,0.05,0.00,1.02,-4,-2,-4,99,0
[11:46:00.744 29/11/2023],-236349.2,-188938.8,-216869,-262810.6,-242691.6,-212158.1,-241371.7,-243284.7,0.05,-0.02,1.02,-4,-2,-4,99,0
[11:46:00.748 29/11/2023],-236361.8,-188938,-216885.1,-262836.5,-242683.1,-212163.2,-241387.5,-243290.2,0.05,-0.02,1.02,-4,-2,-4,99,0
[11:46:00.752 29/11/2023],-236330,-188914.1,-216858.1,-262833.6,-242693.4,-212145.9,-241360.3,-243284,0.05,-0.02,1.02,-4,-2,-4,99,0
[11:46:00.756 29/11/2023],-236304.5,-188895.2,-216825.3,-262795.2,-242689.8,-212146.7,-241329.7,-243255.9,0.03,-0.02,1.00,-4,-2,-4,99,0
[11:46:00.760 29/11/2023],-236343.8,-188944,-216864.7,-262818.9,-242703.1,-212188.4,-241358,-243279,0.03,-0.02,1.00,-4,-2,-4,99,0
[11:46:00.764 29/11/2023],-236369.4,-188975.8,-216897.5,-262851.9,-242721.3,-212190.7,-241378.7,-243295.9,0.03,-0.02,1.00,-4,-2,-4,99,0
[11:46:00.768 29/11/2023],-236358.1,-188973.4,-216886.6,-262877.3,-242743.8,-212161.7,-241370.9,-243305.1,0.03,-0.02,1.00,-4,-2,-4,99,0
[11:46:00.772 29/11/2023],-236319.8,-188933.6,-216842,-262845.1,-242707,-212128,-241338.6,-243272.9,0.03,-0.02,1.00,-4,-2,-4,99,0
[11:46:00.776 29/11/2023],-236339.7,-188959.5,-216855.5,-262861.8,-242713.3,-212142.1,-241359.6,-243278.6,0.03,-0.02,1.00,-4,-2,-4,99,0
[11:46:00.780 29/11/2023],-236365.5,-188989.7,-216883.4,-262884.8,-242726.6,-212172.9,-241381.3,-243301.7,0.03,-0.02,1.00,-4,-2,-4,99,0
[11:46:00.784 29/11/2023],-236371.9,-188991.6,-216897.8,-262886,-242737.3,-212175.9,-241386.5,-243304.4,0.03,-0.02,1.00,-4,-2,-4,99,0
[11:46:00.788 29/11/2023],-236340.2,-188947.1,-216866.9,-262850.8,-242724.2,-212128.7,-241360.4,-243279.2,0.03,-0.02,1.00,-4,-2,-4,99,0
[11:46:00.792 29/11/2023],-236304.5,-188895.2,-216825.3,-262795.2,-242689.8,-212146.7,-241329.7,-243255.9,0.03,-0.02,1.00,-4,-2,-4,99,0
[11:46:00.796 29/11/2023],-236343.8,-188944,-216864.7,-262818.9,-242703.1,-212188.4,-241358,-243279,0.03,-0.02,1.00,-4,-2,-4,99,0
[11:46:00.800 29/11/2023],-236369.4,-188975.8,-216897.5,-262851.9,-242721.3,-212190.7,-241378.7,-243295.9,0.03,-0.02,1.00,-4,-2,-4,99,0
[11:46:00.804 29/11/2023],-236358.1,-188973.4,-216886.6,-262877.3,-242743.8,-212161.7,-241370.9,-243305.1,0.03,-0.02,1.00,-4,-2,-4,99,0
[11:46:00.808 29/11/2023],-236324.3,-188930.2,-216840.3,-262894.6,-242720.7,-212136.8,-241344.1,-243275.9,0.03,-0.02,1.00,-4,-2,-4,99,0
[11:46:00.812 29/11/2023],-236352.8,-188952,-216857.3,-262904.1,-242715.8,-212114.9,-241361.6,-243276.3,0.03,-0.02,1.00,-4,-2,-4,99,0
[11:46:00.816 29/11/2023],-236368.8,-188970.6,-216870.5,-262938.1,-242712.5,-212102.3,-241376,-243297.5,0.03,-0.02,1.00,-4,-2,-4,99,0
[11:46:00.820 29/11/2023],-236331.7,-188931.8,-216832.6,-262917.8,-242707.5,-212132.5,-241342.2,-243274.8,0.03,-0.02,1.00,-4,-2,-4,99,0
[11:46:00.824 29/11/2023],-236322.4,-188909.2,-216829.3,-262900,-242691.5,-212145,-241331.4,-243257.6,0.03,-0.02,1.00,-4,-2,-4,99,0
[11:46:00.828 29/11/2023],-236364.7,-188969.9,-216887.7,-262889.5,-242715.4,-212132,-241381.8,-243308.7,0.03,0.00,1.02,-4,-2,-4,99,0
[11:46:00.832 29/11/2023],-236388.1,-188991.2,-216906.9,-262914.1,-242713.3,-212186.5,-241393.5,-243309.4,0.03,0.00,1.02,-4,-2,-4,99,0
[11:46:00.836 29/11/2023],-236397,-189004.6,-216921,-262933.8,-242745.6,-212175.6,-241402.2,-243313,0.03,0.00,1.02,-4,-2,-4,99,0
[11:46:00.840 29/11/2023],-236337.1,-188946.1,-216859.4,-262910.2,-242735.2,-212109.4,-241356.5,-243292.3,0.03,0.00,1.02,-4,-2,-4,99,0
[11:46:00.844 29/11/2023],-236324.3,-188930.2,-216840.3,-262894.6,-242720.7,-212136.8,-241344.1,-243275.9,0.03,0.00,1.02,-4,-2,-4,99,0
[11:46:00.848 29/11/2023],-236352.8,-188952,-216857.3,-262904.1,-242715.8,-212114.9,-241361.6,-243276.3,0.03,0.00,1.02,-4,-2,-4,99,0
[11:46:00.852 29/11/2023],-236368.8,-188970.6,-216870.5,-262938.1,-242712.5,-212102.3,-241376,-243297.5,0.03,0.00,1.02,-4,-2,-4,99,0
[11:46:00.856 29/11/2023],-236331.7,-188931.8,-216832.6,-262917.8,-242707.5,-212132.5,-241342.2,-243274.8,0.03,0.00,1.02,-4,-2,-4,99,0
[11:46:00.860 29/11/2023],-236322.4,-188909.2,-216829.3,-262900,-242691.5,-212145,-241331.4,-243257.6,0.03,0.00,1.02,-4,-2,-4,99,0
[11:46:00.864 29/11/2023],-236340.6,-188922.3,-216851.8,-262923.1,-242704.9,-212145.6,-241352.9,-243270.6,0.03,0.00,1.02,-4,-2,-4,99,0
[11:46:00.868 29/11/2023],-236361.1,-188944.3,-216869.6,-262940.7,-242692.6,-212155.1,-241370,-243276.2,0.03,0.00,1.02,-4,-2,-4,99,0
[11:46:00.872 29/11/2023],-236329.3,-188916.3,-216845.8,-262926.4,-242699.4,-212134.5,-241343.7,-243260,0.03,0.00,1.02,-4,-2,-4,99,0
[11:46:00.876 29/11/2023],-236290.4,-188873.9,-216808.4,-262899.9,-242685.9,-212091.7,-241314.7,-243241.3,0.03,0.00,1.02,-4,-2,-4,99,0
[11:46:00.880 29/11/2023],-236327,-188908.1,-216842.3,-262952.5,-242732.5,-212116.1,-241350.6,-243279.3,0.03,0.00,1.02,-4,-2,-4,99,0
[11:46:00.884 29/11/2023],-236369.3,-188941.3,-216878.1,-262969,-242732.5,-212145.5,-241375.9,-243284.7,0.03,0.00,1.02,-4,-2,-4,99,0
[11:46:00.888 29/11/2023],-236332.9,-188911.2,-216843.8,-262954.2,-242709.4,-212166.1,-241351.2,-243264.2,0.03,0.00,1.02,-4,-2,-4,99,0
[11:46:00.892 29/11/2023],-236295.7,-188877.7,-216815.1,-262923.8,-242662.3,-212135.4,-241318.7,-243240.7,0.03,0.00,1.02,-4,-2,-4,99,0
[11:46:00.896 29/11/2023],-236360.1,-188918.8,-216872.8,-262953.8,-242682.4,-212161.5,-241350.2,-243256,0.03,0.00,1.02,-4,-2,-4,99,0
[11:46:00.900 29/11/2023],-236373.8,-188953.6,-216896.2,-262973.3,-242725.7,-212196.3,-241387.5,-243278,0.03,-0.02,1.02,-4,-2,-4,99,0
[11:46:00.904 29/11/2023],-236364.2,-188941.8,-216886.2,-262976.2,-242707.9,-212206.4,-241376.2,-243277.3,0.03,-0.02,1.02,-4,-2,-4,99,0
[11:46:00.908 29/11/2023],-236320.8,-188900.3,-216839.6,-262929.2,-242666.6,-212169.9,-241332,-243244.8,0.03,-0.02,1.02,-4,-2,-4,99,0
[11:46:00.912 29/11/2023],-236340.5,-188919.3,-216856,-262947.6,-242695.3,-212180.5,-241347.5,-243253,0.03,-0.02,1.02,-4,-2,-4,99,0
[11:46:00.916 29/11/2023],-236381.5,-188960.5,-216898.2,-262979.5,-242730.4,-212139.9,-241375.3,-243281.8,0.03,-0.02,1.02,-4,-2,-4,99,0
[11:46:00.920 29/11/2023],-236347.7,-188904.5,-216854.8,-262971.7,-242717.9,-212119.3,-241334.1,-243288.3,0.03,-0.02,1.02,-4,-2,-4,99,0
[11:46:00.924 29/11/2023],-236315.9,-188875,-216823,-262941.5,-242699.4,-212132.1,-241310.1,-243258.2,0.03,-0.02,1.02,-4,-2,-4,99,0
[11:46:00.928 29/11/2023],-236337.1,-188887.8,-216838.1,-262953.4,-242697.3,-212186.8,-241329.6,-243261.8,0.03,-0.02,1.02,-4,-2,-4,99,0
[11:46:00.932 29/11/2023],-236351.5,-188906.7,-216849.9,-262979,-242720.8,-212209.4,-241343.2,-243278.6,0.03,-0.02,1.02,-4,-2,-4,99,0
[11:46:00.936 29/11/2023],-236366.2,-188927.5,-216885.7,-262977.4,-242678.4,-212166,-241366,-243270.3,0.03,0.00,1.02,-4,-2,-4,99,0
[11:46:00.940 29/11/2023],-236317.9,-188883,-216838.2,-262957.7,-242663.6,-212165.3,-241328.6,-243264,0.03,0.00,1.02,-4,-2,-4,99,0
[11:46:00.944 29/11/2023],-236305.6,-188870.3,-216823.5,-262937,-242689.6,-212150.1,-241310.1,-243260.2,0.03,0.00,1.02,-4,-2,-4,99,0
[11:46:00.948 29/11/2023],-236322,-188876.3,-216842.8,-262935.5,-242683.6,-212132.9,-241314.8,-243244.7,0.03,0.00,1.02,-4,-2,-4,99,0
[11:46:00.952 29/11/2023],-236362.8,-188912.9,-216878.6,-262968.8,-242703.1,-212144.6,-241344.3,-243276.4,0.03,0.00,1.02,-4,-2,-4,99,0
[11:46:00.956 29/11/2023],-236347.7,-188904.5,-216854.8,-262971.7,-242717.9,-212119.3,-241334.1,-243288.3,0.03,0.00,1.02,-4,-2,-4,99,0
[11:46:00.960 29/11/2023],-236315.9,-188875,-216823,-262941.5,-242699.4,-212132.1,-241310.1,-243258.2,0.03,0.00,1.02,-4,-2,-4,99,0
[11:46:00.964 29/11/2023],-236337.1,-188887.8,-216838.1,-262953.4,-242697.3,-212186.8,-241329.6,-243261.8,0.03,0.00,1.02,-4,-2,-4,99,0
[11:46:00.968 29/11/2023],-236351.5,-188906.7,-216849.9,-262979,-242720.8,-212209.4,-241343.2,-243278.6,0.03,0.00,1.02,-4,-2,-4,99,0
[11:46:00.972 29/11/2023],-236293.8,-188858.5,-216802.8,-262971.3,-242685.8,-212162.9,-241300.1,-243267.5,0.05,0.00,1.02,-4,-2,-4,99,0
[11:46:00.976 29/11/2023],-236270.4,-188834,-216786,-262935.5,-242673,-212119.2,-241275.9,-243245.5,0.05,0.00,1.02,-4,-2,-4,99,0
[11:46:00.980 29/11/2023],-236340.2,-188891.8,-216856.4,-262980.6,-242644.4,-212149.7,-241325.1,-243264.2,0.05,0.00,1.02,-4,-2,-4,99,0
[11:46:00.984 29/11/2023],-236324.4,-188869.6,-216847.8,-262985.1,-242659.3,-212175.5,-241317.3,-243252,0.05,0.00,1.02,-4,-2,-4,99,0
[11:46:00.988 29/11/2023],-236265,-188819.9,-216790,-262947.1,-242661.2,-212120.5,-241270.1,-243218.6,0.05,0.00,1.02,-4,-2,-4,99,0
[11:46:00.992 29/11/2023],-236271.7,-188837,-216795.3,-262955.9,-242663.6,-212107,-241275,-243228,0.05,0.00,1.02,-4,-2,-4,99,0
[11:46:00.996 29/11/2023],-236309.3,-188872,-216837.1,-262974.1,-242669,-212128.1,-241305.5,-243238.8,0.05,0.00,1.02,-4,-2,-4,99,0
[11:46:01.000 29/11/2023],-236335.8,-188893.6,-216868.5,-263013.3,-242698.9,-212133.5,-241335.5,-243265.7,0.05,0.00,1.02,-4,-2,-4,99,0
[11:46:01.004 29/11/2023],-236305.2,-188856.7,-216836.9,-262991.8,-242674.5,-212097,-241306.4,-243254.3,0.05,0.00,1.02,-4,-2,-4,99,0
[11:46:01.008 29/11/2023],-236323,-188876.8,-216852.5,-262986.4,-242672.8,-212073.6,-241317.7,-243265.2,0.03,0.00,1.02,-4,-2,-4,99,0
[11:46:01.012 29/11/2023],-236355.7,-188911.3,-216887.9,-262999.4,-242665.6,-212143.1,-241343.9,-243266.1,0.03,0.00,1.02,-4,-2,-4,99,0
[11:46:01.016 29/11/2023],-236370.9,-188926.1,-216910.9,-263007,-242663.9,-212180.7,-241355.9,-243263.9,0.03,0.00,1.02,-4,-2,-4,99,0
[11:46:01.020 29/11/2023],-236324.4,-188887.1,-216876.2,-262982.6,-242666.2,-212166.5,-241317.6,-243255.6,0.03,0.00,1.02,-4,-2,-4,99,0
[11:46:01.024 29/11/2023],-236315.2,-188890.1,-216868.8,-262958.4,-242668.2,-212129.5,-241305.3,-243254.1,0.03,0.00,1.02,-4,-2,-4,99,0
[11:46:01.028 29/11/2023],-236339.2,-188912,-216883.9,-262975.4,-242678.7,-212121.4,-241321.7,-243265.6,0.03,0.00,1.02,-4,-2,-4,99,0
[11:46:01.032 29/11/2023],-236356.1,-188934.2,-216904.5,-262990.4,-242687.5,-212144.1,-241340.2,-243274.1,0.03,0.00,1.02,-4,-2,-4,99,0
[11:46:01.036 29/11/2023],-236329.3,-188913.2,-216882.1,-262983.3,-242686.2,-212077.5,-241323.5,-243270,0.03,0.00,1.02,-4,-2,-4,99,0
[11:46:01.040 29/11/2023],-236302.7,-188887.8,-216844.6,-262957.6,-242670.7,-212036.8,-241296.3,-243253.8,0.03,0.00,1.02,-4,-2,-4,99,0
[11:46:01.044 29/11/2023],-236323,-188876.8,-216852.5,-262986.4,-242672.8,-212073.6,-241317.7,-243265.2,0.03,0.00,1.02,-4,-2,-4,99,0
[11:46:01.048 29/11/2023],-236355.7,-188911.3,-216887.9,-262999.4,-242665.6,-212143.1,-241343.9,-243266.1,0.03,0.00,1.02,-4,-2,-4,99,0
[11:46:01.052 29/11/2023],-236370.9,-188926.1,-216910.9,-263007,-242663.9,-212180.7,-241355.9,-243263.9,0.03,0.00,1.02,-4,-2,-4,99,0
[11:46:01.056 29/11/2023],-236324.4,-188887.1,-216876.2,-262982.6,-242666.2,-212166.5,-241317.6,-243255.6,0.03,0.00,1.02,-4,-2,-4,99,0
[11:46:01.060 29/11/2023],-236334.9,-188918.9,-216881.9,-262994.4,-242675.4,-212140.3,-241320.1,-243275.5,0.03,0.00,1.02,-4,-2,-4,99,0
[11:46:01.064 29/11/2023],-236347.8,-188930.2,-216890.9,-263003.3,-242666,-212143.7,-241323.7,-243267.2,0.03,0.00,1.02,-4,-2,-4,99,0
[11:46:01.068 29/11/2023],-236325.3,-188902.1,-216871.5,-262998.4,-242671.8,-212130.5,-241305.7,-243257.2,0.03,0.00,1.02,-4,-2,-4,99,0
[11:46:01.072 29/11/2023],-236293,-188861,-216840.5,-262966,-242645.1,-212118.8,-241275.4,-243244.5,0.03,0.00,1.02,-4,-2,-4,99,0
[11:46:01.076 29/11/2023],-236308.7,-188877.5,-216854.3,-262973.1,-242669.7,-212132.3,-241287.2,-243255.5,0.03,0.00,1.02,-4,-2,-4,99,0
[11:46:01.080 29/11/2023],-236319.4,-188897.8,-216851.8,-262964.5,-242669.4,-212127.9,-241305.2,-243237.9,0.05,-0.02,1.02,-4,-2,-4,99,0
[11:46:01.084 29/11/2023],-236349.6,-188927.4,-216883.3,-262986.9,-242657.2,-212142.4,-241325.8,-243256,0.05,-0.02,1.02,-4,-2,-4,99,0
[11:46:01.088 29/11/2023],-236321.9,-188908.1,-216862.6,-262986.6,-242666.2,-212127.1,-241304,-243256,0.05,-0.02,1.02,-4,-2,-4,99,0
[11:46:01.092 29/11/2023],-236300,-188884.4,-216847.5,-262961.4,-242647.4,-212102.8,-241289.4,-243245.3,0.05,-0.02,1.02,-4,-2,-4,99,0
[11:46:01.096 29/11/2023],-236337.8,-188916.6,-216881.5,-262997.6,-242674.6,-212045.4,-241313.2,-243282.5,0.05,-0.02,1.02,-4,-2,-4,99,0
[11:46:01.100 29/11/2023],-236332,-188917.1,-216880.7,-263013.5,-242696.9,-212137.9,-241312.2,-243274.5,0.05,-0.02,1.02,-4,-2,-4,99,0
[11:46:01.104 29/11/2023],-236285.5,-188880.3,-216838.9,-262987.4,-242670.7,-212139.1,-241269.2,-243251,0.03,0.00,1.02,-4,-2,-4,99,0
[11:46:01.108 29/11/2023],-236296.2,-188892.2,-216858.3,-262982.9,-242676.7,-212172.5,-241269.3,-243260.6,0.03,0.00,1.02,-4,-2,-4,99,0
[11:46:01.112 29/11/2023],-236325.6,-188911.8,-216881.6,-262997.7,-242675.3,-212159.1,-241296.5,-243269.3,0.03,0.00,1.02,-4,-2,-4,99,0
[11:46:01.116 29/11/2023],-236347.4,-188918.1,-216897.6,-263002,-242681.2,-212149.7,-241320.2,-243269.8,0.03,0.00,1.02,-4,-2,-4,99,0
[11:46:01.120 29/11/2023],-236346.5,-188921.6,-216912.9,-263015.1,-242673.6,-212173.5,-241324.4,-243275.6,0.03,0.00,1.02,-4,-2,-4,99,0
[11:46:01.124 29/11/2023],-236296.2,-188880,-216864.1,-262984.8,-242646.8,-212158.7,-241286.9,-243259.8,0.03,0.00,1.02,-4,-2,-4,99,0
[11:46:01.128 29/11/2023],-236307.3,-188882.6,-216862.9,-262979.8,-242648.7,-212130.9,-241292.2,-243266.1,0.03,0.00,1.02,-4,-2,-4,99,0
[11:46:01.132 29/11/2023],-236337.8,-188916.6,-216881.5,-262997.6,-242674.6,-212045.4,-241313.2,-243282.5,0.03,0.00,1.02,-4,-2,-4,99,0
[11:46:01.136 29/11/2023],-236332,-188917.1,-216880.7,-263013.5,-242696.9,-212137.9,-241312.2,-243274.5,0.03,0.00,1.02,-4,-2,-4,99,0
[11:46:01.140 29/11/2023],-236285.5,-188880.3,-216838.9,-262987.4,-242670.7,-212139.1,-241269.2,-243251,0.03,0.00,1.02,-4,-2,-4,99,0
[11:46:01.144 29/11/2023],-236296.2,-188892.2,-216858.3,-262982.9,-242676.7,-212172.5,-241269.3,-243260.6,0.03,0.00,1.02,-4,-2,-4,99,0
[11:46:01.148 29/11/2023],-236396.4,-188935,-216907.2,-262973.3,-242671.7,-212123,-241339.9,-243230.6,0.03,0.00,1.02,-4,-2,-4,99,0
[11:46:01.152 29/11/2023],-236359.5,-188938,-216903.6,-263017,-242684.1,-212107.5,-241326.1,-243287.1,0.03,0.00,1.02,-4,-2,-4,99,0
[11:46:01.156 29/11/2023],-236343.5,-188915.5,-216896.7,-262992.2,-242655.6,-212123.3,-241317.2,-243268,0.03,0.00,1.02,-4,-2,-4,99,0
[11:46:01.160 29/11/2023],-236329.3,-188892.3,-216878.1,-262958.5,-242638.8,-212173.8,-241300.2,-243237.8,0.03,0.00,1.02,-4,-2,-4,99,0
[11:46:01.164 29/11/2023],-236351.2,-188908.9,-216887,-262969.1,-242655.8,-212152.9,-241311,-243243.5,0.03,0.00,1.02,-4,-2,-4,99,0
[11:46:01.168 29/11/2023],-236403,-188921.6,-216915.2,-262970.8,-242660.8,-212098.5,-241349.7,-243234.7,0.03,0.00,1.02,-4,-2,-4,99,0
[11:46:01.172 29/11/2023],-236340.8,-188865.3,-216855.1,-262923.8,-242612.5,-212050.2,-241291,-243201,0.03,0.00,1.02,-4,-2,-4,99,0
[11:46:01.176 29/11/2023],-236337.1,-188861.1,-216846.1,-262934.3,-242628,-212006.4,-241286.1,-243208.3,0.03,0.00,1.02,-4,-2,-4,99,0
[11:46:01.180 29/11/2023],-236380.4,-188902.4,-216888.1,-262952.2,-242646.8,-212069.5,-241321.5,-243217.4,0.03,0.00,1.02,-4,-2,-4,99,0
[11:46:01.184 29/11/2023],-236389.9,-188920.8,-216912,-262963.2,-242666.1,-212137.7,-241338.4,-243225.1,0.03,0.00,1.02,-4,-2,-4,99,0
[11:46:01.188 29/11/2023],-236379.1,-188918.1,-216889.1,-262970.5,-242649.4,-212071.9,-241319.9,-243232.3,0.03,0.00,1.02,-4,-2,-4,99,0
[11:46:01.192 29/11/2023],-236366,-188890.7,-216864.4,-262930.8,-242612.2,-212065.2,-241295.3,-243202,0.03,0.00,1.02,-4,-2,-4,99,0
[11:46:01.196 29/11/2023],-236405.2,-188924,-216901.2,-262947.2,-242657,-212118.3,-241329.9,-243218.2,0.03,0.00,1.02,-4,-2,-4,99,0
[11:46:01.200 29/11/2023],-236427.6,-188945.1,-216927.2,-262961.4,-242662.5,-212121.9,-241354.8,-243228.4,0.03,0.00,1.02,-4,-2,-4,99,0
[11:46:01.204 29/11/2023],-236403,-188921.6,-216915.2,-262970.8,-242660.8,-212098.5,-241349.7,-243234.7,0.03,0.00,1.02,-4,-2,-4,99,0
[11:46:01.208 29/11/2023],-236340.8,-188865.3,-216855.1,-262923.8,-242612.5,-212050.2,-241291,-243201,0.03,0.00,1.02,-4,-2,-4,99,0
[11:46:01.212 29/11/2023],-236337.1,-188861.1,-216846.1,-262934.3,-242628,-212006.4,-241286.1,-243208.3,0.03,0.00,1.02,-4,-2,-4,99,0
[11:46:01.216 29/11/2023],-236380.4,-188902.4,-216888.1,-262952.2,-242646.8,-212069.5,-241321.5,-243217.4,0.03,0.00,1.02,-4,-2,-4,99,0
[11:46:01.220 29/11/2023],-236373.9,-188895.6,-216890.5,-262938,-242647.9,-212110,-241323.1,-243244.8,0.03,0.00,1.02,-4,-2,-4,99,0
[11:46:01.224 29/11/2023],-236354.8,-188889.9,-216882.8,-262929.3,-242640.6,-212129.7,-241311.7,-243212.8,0.03,0.00,1.00,-4,-2,-4,99,0
[11:46:01.228 29/11/2023],-236389.8,-188915,-216902,-262919.3,-242646.9,-212129.7,-241328.4,-243225.8,0.03,0.00,1.00,-4,-2,-4,99,0
[11:46:01.232 29/11/2023],-236428.1,-188947.9,-216936.1,-262948.7,-242656.3,-212167,-241363.3,-243249.4,0.03,0.00,1.00,-4,-2,-4,99,0
[11:46:01.236 29/11/2023],-236451.2,-188970.1,-216963.1,-262977.3,-242687.1,-212158.9,-241389.9,-243279.8,0.03,0.00,1.00,-4,-2,-4,99,0
[11:46:01.240 29/11/2023],-236401.5,-188925,-216918,-262950.8,-242658.2,-212075,-241351.1,-243268,0.03,0.00,1.00,-4,-2,-4,99,0
[11:46:01.244 29/11/2023],-236382.8,-188905.3,-216896.6,-262938.9,-242655.1,-212123.7,-241339.3,-243254.7,0.03,0.00,1.00,-4,-2,-4,99,0
[11:46:01.248 29/11/2023],-236416.2,-188932.9,-216925.4,-262949.5,-242660.9,-212166.1,-241357.1,-243263.3,0.03,0.00,1.00,-4,-2,-4,99,0
[11:46:01.252 29/11/2023],-236432.3,-188947.8,-216944.6,-262965,-242669.2,-212141.2,-241370.5,-243273.6,0.03,0.00,1.00,-4,-2,-4,99,0
[11:46:01.256 29/11/2023],-236373.9,-188895.6,-216890.5,-262938,-242647.9,-212110,-241323.1,-243244.8,0.03,0.00,1.00,-4,-2,-4,99,0
[11:46:01.260 29/11/2023],-236357.4,-188888.8,-216865.5,-262939,-242654.1,-212149.2,-241316.1,-243250,0.03,0.00,1.02,-4,-2,-4,99,0
[11:46:01.264 29/11/2023],-236396.7,-188932.5,-216909.6,-262955.6,-242652,-212173.1,-241340.5,-243262.8,0.03,0.00,1.02,-4,-2,-4,99,0
[11:46:01.268 29/11/2023],-236368.8,-188908.6,-216888.6,-262942.4,-242636.8,-212182,-241320.5,-243248.2,0.03,0.00,1.02,-4,-2,-4,99,0
[11:46:01.272 29/11/2023],-236318.1,-188860.7,-216836.4,-262898.9,-242614,-212127.6,-241277.1,-243220.3,0.03,0.00,1.02,-4,-2,-4,99,0
[11:46:01.276 29/11/2023],-236331.5,-188867.7,-216847.3,-262903.8,-242617.9,-212107.7,-241289.1,-243228.6,0.03,0.00,1.02,-4,-2,-4,99,0
[11:46:01.280 29/11/2023],-236359,-188901.1,-216876.5,-262927.3,-242623.1,-212057.4,-241309.7,-243243.6,0.03,0.00,1.02,-4,-2,-4,99,0
[11:46:01.284 29/11/2023],-236329.9,-188886.8,-216849.6,-262938.5,-242647,-212014.1,-241287.8,-243234.4,0.03,0.00,1.02,-4,-2,-4,99,0
[11:46:01.288 29/11/2023],-236278.5,-188841.4,-216804,-262904,-242622.2,-212073.6,-241249.6,-243205.1,0.03,0.00,1.02,-4,-2,-4,99,0
[11:46:01.292 29/11/2023],-236301.6,-188864.5,-216827.2,-262898.8,-242616.5,-212151.2,-241267.7,-243202.6,0.03,0.00,1.02,-4,-2,-4,99,0
[11:46:01.296 29/11/2023],-236357.4,-188888.8,-216865.5,-262939,-242654.1,-212149.2,-241316.1,-243250,0.03,0.00,1.02,-4,-2,-4,99,0
[11:46:01.300 29/11/2023],-236396.7,-188932.5,-216909.6,-262955.6,-242652,-212173.1,-241340.5,-243262.8,0.03,0.00,1.02,-4,-2,-4,99,0
[11:46:01.304 29/11/2023],-236368.8,-188908.6,-216888.6,-262942.4,-242636.8,-212182,-241320.5,-243248.2,0.03,0.00,1.02,-4,-2,-4,99,0
[11:46:01.308 29/11/2023],-236318.1,-188860.7,-216836.4,-262898.9,-242614,-212127.6,-241277.1,-243220.3,0.03,0.00,1.02,-4,-2,-4,99,0
[11:46:01.312 29/11/2023],-236331.5,-188867.7,-216847.3,-262903.8,-242617.9,-212107.7,-241289.1,-243228.6,0.03,0.00,1.02,-4,-2,-4,99,0
[11:46:01.316 29/11/2023],-236359,-188901.1,-216876.5,-262927.3,-242623.1,-212057.4,-241309.7,-243243.6,0.03,0.00,1.02,-4,-2,-4,99,0
[11:46:01.320 29/11/2023],-236329.9,-188886.8,-216849.6,-262938.5,-242647,-212014.1,-241287.8,-243234.4,0.03,0.00,1.02,-4,-2,-4,99,0
[11:46:01.324 29/11/2023],-236278.5,-188841.4,-216804,-262904,-242622.2,-212073.6,-241249.6,-243205.1,0.03,0.00,1.02,-4,-2,-4,99,0
[11:46:01.328 29/11/2023],-236301.6,-188864.5,-216827.2,-262898.8,-242616.5,-212151.2,-241267.7,-243202.6,0.03,0.00,1.02,-4,-2,-4,99,0
[11:46:01.332 29/11/2023],-236348.2,-188909.5,-216871,-262917.6,-242604.5,-212161.2,-241301.6,-243215,0.03,0.00,1.02,-4,-2,-4,99,0
[11:46:01.336 29/11/2023],-236354.3,-188919.9,-216884.4,-262931.3,-242599.6,-212139.2,-241310.4,-243229.7,0.03,0.00,1.02,-4,-2,-4,99,0
[11:46:01.340 29/11/2023],-236315.5,-188885.7,-216851.4,-262905.9,-242612.7,-212105,-241280.9,-243219,0.03,0.00,1.02,-4,-2,-4,99,0
[11:46:01.344 29/11/2023],-236298.1,-188878.9,-216844.1,-262898.5,-242609.5,-212102.5,-241269,-243219.5,0.03,0.00,1.02,-4,-2,-4,99,0
[11:46:01.348 29/11/2023],-236310.7,-188882.3,-216854.1,-262899.7,-242624.7,-212071.3,-241280.8,-243219.3,0.03,0.00,1.02,-4,-2,-4,99,0
[11:46:01.352 29/11/2023],-236356,-188914.4,-216893.3,-262914.9,-242658.5,-212095.2,-241320,-243227.5,0.03,0.00,1.02,-4,-2,-4,99,0
[11:46:01.356 29/11/2023],-236317.8,-188880.8,-216861.9,-262900.2,-242641,-212084.8,-241290.3,-243215.9,0.03,0.00,1.02,-4,-2,-4,99,0
[11:46:01.360 29/11/2023],-236297,-188865.4,-216839.5,-262874,-242621.3,-212063.9,-241267.4,-243203.9,0.03,0.00,1.02,-4,-2,-4,99,0
[11:46:01.364 29/11/2023],-236314.9,-188885.8,-216852.9,-262889.1,-242618.6,-212133.9,-241281.8,-243208.3,0.03,0.00,1.02,-4,-2,-4,99,0
[11:46:01.368 29/11/2023],-236338,-188915.5,-216888.6,-262905.3,-242630.7,-212165.3,-241308.2,-243221,0.05,0.00,1.03,-4,-2,-4,99,0
[11:46:01.372 29/11/2023],-236322.5,-188896.7,-216874.9,-262894.9,-242597.4,-212096.3,-241300,-243217.5,0.05,0.00,1.03,-4,-2,-4,99,0
[11:46:01.376 29/11/2023],-236288.6,-188858,-216842.3,-262863.7,-242588.1,-212078.6,-241271.9,-243190.5,0.05,0.00,1.03,-4,-2,-4,99,0
[11:46:01.380 29/11/2023],-236291.1,-188854.2,-216839.2,-262872.4,-242622.7,-212108.2,-241279.7,-243191.3,0.05,0.00,1.03,-4,-2,-4,99,0
[11:46:01.384 29/11/2023],-236325.3,-188904,-216861.3,-262906.8,-242647.8,-212130.4,-241309.3,-243220.2,0.05,0.00,1.03,-4,-2,-4,99,0
[11:46:01.388 29/11/2023],-236308.9,-188907.1,-216844.6,-262903.1,-242650.6,-212117,-241298.3,-243223.5,0.05,0.00,1.03,-4,-2,-4,99,0
[11:46:01.392 29/11/2023],-236285.1,-188886,-216820.6,-262872.1,-242643.2,-212047,-241276.8,-243215.8,0.05,0.00,1.03,-4,-2,-4,99,0
[11:46:01.396 29/11/2023],-236314.4,-188915.2,-216846,-262899.7,-242628.4,-211991.8,-241304.2,-243253.5,0.05,0.00,1.03,-4,-2,-4,99,0
[11:46:01.400 29/11/2023],-236327,-188916.9,-216850,-262901,-242594.5,-212100,-241309.9,-243229.3,0.05,0.00,1.03,-4,-2,-4,99,0
[11:46:01.404 29/11/2023],-236292.7,-188882.5,-216805.9,-262873.1,-242587.7,-212147.2,-241282.7,-243191.8,0.03,0.00,1.02,-4,-2,-4,99,0
[11:46:01.408 29/11/2023],-236262,-188861.6,-216774.2,-262833.5,-242605.6,-212109.2,-241258,-243169.3,0.03,0.00,1.02,-4,-2,-4,99,0
[11:46:01.412 29/11/2023],-236280.9,-188884.5,-216790,-262841.7,-242637.5,-212109.9,-241266.2,-243183.4,0.03,0.00,1.02,-4,-2,-4,99,0
[11:46:01.416 29/11/2023],-236318.8,-188913.9,-216819.8,-262874.5,-242652.7,-212095.7,-241294.6,-243214.5,0.03,0.00,1.02,-4,-2,-4,99,0
[11:46:01.420 29/11/2023],-236318.7,-188917.9,-216822.8,-262891.3,-242635.4,-212023.9,-241297.5,-243231.9,0.03,0.00,1.02,-4,-2,-4,99,0
[11:46:01.424 29/11/2023],-236260,-188859.3,-216770,-262849.3,-242608.7,-212057.1,-241253.9,-243198.2,0.03,0.00,1.02,-4,-2,-4,99,0
[11:46:01.428 29/11/2023],-236282.6,-188874.3,-216793,-262839.3,-242611.1,-212124.2,-241269,-243202.4,0.03,0.00,1.02,-4,-2,-4,99,0
[11:46:01.432 29/11/2023],-236326.9,-188921,-216843.3,-262861.4,-242581.5,-212120.4,-241306.3,-243227.8,0.03,0.00,1.02,-4,-2,-4,99,0
[11:46:01.436 29/11/2023],-236322.1,-188921.7,-216837.9,-262871.5,-242602.9,-212131.8,-241305.7,-243221.2,0.03,0.00,1.02,-4,-2,-4,99,0
[11:46:01.440 29/11/2023],-236276.6,-188885.5,-216785.9,-262837.8,-242608.3,-212099.3,-241262.5,-243191,0.03,-0.02,1.02,-4,-2,-4,99,0
[11:46:01.444 29/11/2023],-236308.4,-188921.7,-216812.6,-262838.7,-242625.3,-212086.6,-241280,-243207.9,0.03,-0.02,1.02,-4,-2,-4,99,0
[11:46:01.448 29/11/2023],-236332.3,-188946.1,-216832.4,-262860,-242639.9,-212051.8,-241299.6,-243220.3,0.03,-0.02,1.02,-4,-2,-4,99,0
[11:46:01.452 29/11/2023],-236338.8,-188946.8,-216848.2,-262870.1,-242639,-212064.7,-241307.8,-243221.3,0.03,-0.02,1.02,-4,-2,-4,99,0
[11:46:01.456 29/11/2023],-236290.8,-188907.1,-216798.5,-262838.9,-242606.3,-212132.6,-241269,-243193.7,0.03,-0.02,1.02,-4,-2,-4,99,0
[11:46:01.460 29/11/2023],-236304,-188921.3,-216798.2,-262826.8,-242601.3,-212131.9,-241274.1,-243199.2,0.03,-0.02,1.02,-4,-2,-4,99,0
[11:46:01.464 29/11/2023],-236325.2,-188942,-216808.5,-262843.9,-242599.4,-212128.4,-241289.8,-243212.3,0.03,-0.02,1.02,-4,-2,-4,99,0
[11:46:01.468 29/11/2023],-236326.4,-188951.3,-216801.5,-262853.4,-242603.5,-212129.1,-241287.5,-243210.7,0.03,-0.02,1.02,-4,-2,-4,99,0
[11:46:01.472 29/11/2023],-236281,-188922,-216764.3,-262848.2,-242612,-212072.4,-241255.5,-243208.7,0.03,-0.02,1.02,-4,-2,-4,99,0
[11:46:01.476 29/11/2023],-236284.2,-188917.7,-216774.8,-262832,-242623.8,-212054.6,-241257.4,-243205.5,0.03,0.00,1.02,-4,-2,-4,99,0
[11:46:01.480 29/11/2023],-236326.4,-188954,-216821.8,-262847,-242632.6,-212119.7,-241290.7,-243220.2,0.03,0.00,1.02,-4,-2,-4,99,0
[11:46:01.484 29/11/2023],-236335.5,-188966.9,-216832.6,-262859.8,-242607.3,-212116.8,-241300.3,-243228.5,0.03,0.00,1.02,-4,-2,-4,99,0
[11:46:01.488 29/11/2023],-236306.7,-188940.4,-216798.1,-262852,-242611.6,-212057.9,-241284,-243222.6,0.03,0.00,1.02,-4,-2,-4,99,0
[11:46:01.492 29/11/2023],-236268.4,-188907.3,-216757.5,-262819.7,-242601.7,-212069.2,-241251.2,-243198.5,0.03,0.00,1.02,-4,-2,-4,99,0
[11:46:01.496 29/11/2023],-236285.3,-188926.4,-216773.6,-262824.9,-242590.1,-212116.9,-241258.9,-243192,0.03,0.00,1.02,-4,-2,-4,99,0
[11:46:01.500 29/11/2023],-236330.4,-188966.5,-216818.7,-262855.6,-242598.2,-212151.3,-241294.4,-243215,0.03,0.00,1.02,-4,-2,-4,99,0
[11:46:01.504 29/11/2023],-236338.7,-188975.2,-216841.6,-262869.6,-242630.6,-212121.7,-241310.9,-243229.6,0.03,0.00,1.02,-4,-2,-4,99,0
[11:46:01.508 29/11/2023],-236296.4,-188937.7,-216801.2,-262843.4,-242611.7,-212063,-241277.1,-243216.8,0.03,0.00,1.02,-4,-2,-4,99,0
[11:46:01.512 29/11/2023],-236292.2,-188932.9,-216796.6,-262846.8,-242610.3,-212101.6,-241273.6,-243215.1,0.05,0.00,1.00,-4,-2,-4,99,0
[11:46:01.516 29/11/2023],-236315.4,-188957.6,-216819.9,-262868.5,-242588.3,-212140.4,-241297.2,-243218.3,0.05,0.00,1.00,-4,-2,-4,99,0
[11:46:01.520 29/11/2023],-236305.5,-188957.3,-216810.2,-262889.6,-242613.3,-212116.5,-241295.8,-243231.4,0.05,0.00,1.00,-4,-2,-4,99,0
[11:46:01.524 29/11/2023],-236265.6,-188921.4,-216775.1,-262860.7,-242610.8,-212060.5,-241264.4,-243216.7,0.05,0.00,1.00,-4,-2,-4,99,0
[11:46:01.528 29/11/2023],-236297.3,-188949.4,-216808.9,-262863.3,-242635.7,-212085.6,-241291.1,-243230,0.05,0.00,1.00,-4,-2,-4,99,0
[11:46:01.532 29/11/2023],-236324,-188962.2,-216829.4,-262872.9,-242616.5,-212166.7,-241311.7,-243232.2,0.05,0.00,1.00,-4,-2,-4,99,0
[11:46:01.536 29/11/2023],-236344.5,-188977.5,-216851.8,-262891,-242612,-212178.4,-241330,-243242.2,0.05,0.00,1.00,-4,-2,-4,99,0
[11:46:01.540 29/11/2023],-236301.8,-188938.3,-216812.9,-262865.6,-242604,-212147.6,-241292.9,-243219,0.05,0.00,1.00,-4,-2,-4,99,0
[11:46:01.544 29/11/2023],-236299.1,-188932.4,-216806.8,-262857.7,-242613.1,-212110.5,-241288.1,-243220.8,0.05,0.00,1.00,-4,-2,-4,99,0
[11:46:01.548 29/11/2023],-236332.8,-188954.9,-216834.4,-262877.8,-242618.1,-212148,-241315.1,-243232.9,0.05,0.00,1.02,-4,-2,-4,99,0
[11:46:01.552 29/11/2023],-236346.7,-188968.8,-216852.2,-262880.8,-242613.2,-212167,-241327.9,-243230.3,0.05,0.00,1.02,-4,-2,-4,99,0
[11:46:01.556 29/11/2023],-236313,-188946.6,-216819.8,-262869.9,-242604.1,-212081,-241303.3,-243231.4,0.05,0.00,1.02,-4,-2,-4,99,0
[11:46:01.560 29/11/2023],-236297.9,-188937.1,-216807.5,-262853.9,-242602.7,-212067.8,-241288.6,-243218,0.05,0.00,1.02,-4,-2,-4,99,0
[11:46:01.564 29/11/2023],-236309.9,-188946.2,-216819.5,-262864.3,-242590.9,-212093,-241299,-243215.4,0.05,0.00,1.02,-4,-2,-4,99,0
[11:46:01.568 29/11/2023],-236336.8,-188970.8,-216842.9,-262890.4,-242617.4,-212127.6,-241318.3,-243241.5,0.05,0.00,1.02,-4,-2,-4,99,0
[11:46:01.572 29/11/2023],-236293.7,-188938.5,-216798.6,-262873.7,-242613.3,-212105.5,-241286.4,-243220,0.05,0.00,1.02,-4,-2,-4,99,0
[11:46:01.576 29/11/2023],-236277.6,-188923.4,-216778.2,-262845.3,-242589.1,-212136,-241269.2,-243198,0.05,0.00,1.02,-4,-2,-4,99,0
[11:46:01.580 29/11/2023],-236305.1,-188950.2,-216798.6,-262867.3,-242614.9,-212164.6,-241293.1,-243217.6,0.05,0.00,1.02,-4,-2,-4,99,0
[11:46:01.584 29/11/2023],-236337.1,-188984,-216827.5,-262889.1,-242622.8,-212164.5,-241319.4,-243236.5,0.03,0.00,1.00,-4,-2,-4,99,0
[11:46:01.588 29/11/2023],-236319.9,-188974.2,-216824.6,-262890.4,-242610.2,-212127.4,-241311,-243250,0.03,0.00,1.00,-4,-2,-4,99,0
[11:46:01.592 29/11/2023],-236279.8,-188930.5,-216790.4,-262844.3,-242597.6,-212067,-241275.6,-243223.1,0.03,0.00,1.00,-4,-2,-4,99,0
[11:46:01.596 29/11/2023],-236306.8,-188945.4,-216821.9,-262852,-242596.4,-212133,-241299.5,-243220.1,0.03,0.00,1.00,-4,-2,-4,99,0
[11:46:01.600 29/11/2023],-236340.3,-188975.4,-216850.5,-262874.4,-242616.3,-212144.3,-241324.2,-243237.3,0.03,0.00,1.00,-4,-2,-4,99,0
[11:46:01.604 29/11/2023],-236329.8,-188973.8,-216841.1,-262891.2,-242625.5,-212054.5,-241318.1,-243256.8,0.03,0.00,1.00,-4,-2,-4,99,0
[11:46:01.608 29/11/2023],-236296.6,-188940.6,-216811.4,-262860.6,-242622,-212090.9,-241290.3,-243228.2,0.03,0.00,1.00,-4,-2,-4,99,0
[11:46:01.612 29/11/2023],-236308.1,-188945.6,-216822.5,-262850.8,-242618.2,-212136.6,-241299.3,-243210.3,0.03,0.00,1.00,-4,-2,-4,99,0
[11:46:01.616 29/11/2023],-236357,-188991.7,-216875.2,-262880.4,-242634.4,-212182.5,-241339.7,-243244.6,0.03,0.00,1.00,-4,-2,-4,99,0
[11:46:01.620 29/11/2023],-236347.3,-188980.7,-216872.3,-262882.5,-242651.2,-212188.1,-241335.3,-243246,0.03,-0.02,1.02,-4,-2,-4,99,0
[11:46:01.624 29/11/2023],-236306.8,-188946.8,-216828.6,-262848.3,-242617.4,-212104.5,-241295.6,-243227.7,0.03,-0.02,1.02,-4,-2,-4,99,0
[11:46:01.628 29/11/2023],-236326.1,-188966.4,-216847,-262859.6,-242642,-212060,-241310.6,-243246.7,0.03,-0.02,1.02,-4,-2,-4,99,0
[11:46:01.632 29/11/2023],-236357,-188984.7,-216875.6,-262881.7,-242639.9,-212125.7,-241337.7,-243252.5,0.03,-0.02,1.02,-4,-2,-4,99,0
[11:46:01.636 29/11/2023],-236369.2,-188996.6,-216890,-262896.9,-242643.3,-212194.5,-241351.3,-243258.4,0.03,-0.02,1.02,-4,-2,-4,99,0
[11:46:01.640 29/11/2023],-236309.4,-188945.2,-216841.4,-262861.1,-242610.5,-212179.8,-241306.3,-243233.2,0.03,-0.02,1.02,-4,-2,-4,99,0
[11:46:01.644 29/11/2023],-236304.4,-188947.3,-216827.8,-262866.3,-242620.7,-212145.9,-241299.3,-243246.6,0.03,-0.02,1.02,-4,-2,-4,99,0
[11:46:01.648 29/11/2023],-236323.5,-188962.8,-216841.2,-262893.6,-242628.9,-212135.8,-241316.8,-243259,0.03,-0.02,1.02,-4,-2,-4,99,0
[11:46:01.652 29/11/2023],-236333.9,-188975.5,-216859.4,-262914.5,-242643.7,-212170.7,-241330.4,-243269.9,0.03,-0.02,1.02,-4,-2,-4,99,0
[11:46:01.656 29/11/2023],-236290.1,-188941.7,-216826.3,-262881.8,-242651.6,-212153.9,-241293.8,-243240.2,0.03,-0.02,1.02,-4,-2,-4,99,0
[11:46:01.660 29/11/2023],-236257.7,-188912.9,-216800.5,-262848.3,-242646.8,-212111.1,-241267.6,-243215.5,0.03,-0.02,1.02,-4,-2,-4,99,0
[11:46:01.664 29/11/2023],-236266.7,-188919.5,-216810.3,-262860.7,-242580.9,-212088.1,-241270.8,-243213.8,0.03,-0.02,1.02,-4,-2,-4,99,0
[11:46:01.668 29/11/2023],-236293.4,-188945.5,-216837.5,-262892.5,-242579.7,-212051.1,-241291.4,-243237.7,0.03,-0.02,1.02,-4,-2,-4,99,0
[11:46:01.672 29/11/2023],-236260.2,-188921.2,-216808.8,-262884.9,-242614.2,-212070.5,-241264.5,-243229.3,0.03,-0.02,1.02,-4,-2,-4,99,0
[11:46:01.676 29/11/2023],-236236,-188900.2,-216786.2,-262845.4,-242604.5,-212086.6,-241241.7,-243194.4,0.03,-0.02,1.02,-4,-2,-4,99,0
[11:46:01.680 29/11/2023],-236273.2,-188933.3,-216823.3,-262865.4,-242604,-212116.1,-241272.6,-243212,0.03,-0.02,1.02,-4,-2,-4,99,0
[11:46:01.684 29/11/2023],-236305.6,-188967.8,-216857.9,-262890.3,-242614.9,-212106.8,-241302.4,-243233.3,0.03,-0.02,1.02,-4,-2,-4,99,0
[11:46:01.688 29/11/2023],-236290,-188959.1,-216851.9,-262898.2,-242639.2,-212104.4,-241297.2,-243244.4,0.03,-0.02,1.02,-4,-2,-4,99,0
[11:46:01.692 29/11/2023],-236279.1,-188935.9,-216846.9,-262876.3,-242601.4,-212109.3,-241287.3,-243232.3,0.03,0.00,1.00,-4,-2,-4,99,0
[11:46:01.696 29/11/2023],-236276.4,-188931.9,-216843,-262875,-242592.5,-212124.7,-241286,-243225.4,0.03,0.00,1.00,-4,-2,-4,99,0
[11:46:01.700 29/11/2023],-236257.5,-188921.4,-216827.5,-262884.4,-242580.6,-212119.2,-241275.4,-243222.2,0.03,0.00,1.00,-4,-2,-4,99,0
[11:46:01.704 29/11/2023],-236214.3,-188878.7,-216778.9,-262850.6,-242573.6,-212056.4,-241236.6,-243196.3,0.03,0.00,1.00,-4,-2,-4,99,0
[11:46:01.708 29/11/2023],-236219.4,-188886.2,-216780.3,-262848.3,-242598.5,-212050,-241239.6,-243200.6,0.03,0.00,1.00,-4,-2,-4,99,0
[11:46:01.712 29/11/2023],-236228.9,-188893.7,-216794,-262874.2,-242607.3,-212031.2,-241253.5,-243205.8,0.03,0.00,1.00,-4,-2,-4,99,0
[11:46:01.716 29/11/2023],-236247.1,-188904.6,-216817.5,-262885.2,-242600.5,-212090.8,-241265.2,-243213.2,0.03,0.00,1.00,-4,-2,-4,99,0
[11:46:01.720 29/11/2023],-236218.5,-188876.8,-216794.6,-262848.3,-242575,-212098.1,-241239.1,-243193.1,0.03,0.00,1.00,-4,-2,-4,99,0
[11:46:01.724 29/11/2023],-236225.7,-188892.3,-216801.5,-262841,-242585.1,-212079,-241246.2,-243203.2,0.03,0.00,1.00,-4,-2,-4,99,0
[11:46:01.728 29/11/2023],-236279.1,-188935.9,-216846.9,-262876.3,-242601.4,-212109.3,-241287.3,-243232.3,0.03,0.00,1.00,-4,-2,-4,99,0
[11:46:01.732 29/11/2023],-236276.4,-188931.9,-216843,-262875,-242592.5,-212124.7,-241286,-243225.4,0.03,0.00,1.00,-4,-2,-4,99,0
[11:46:01.736 29/11/2023],-236257.5,-188921.4,-216827.5,-262884.4,-242580.6,-212119.2,-241275.4,-243222.2,0.03,0.00,1.00,-4,-2,-4,99,0
[11:46:01.740 29/11/2023],-236226.7,-188878.7,-216778.9,-262850.6,-242573.6,-212056.4,-241236.6,-243196.3,0.03,0.00,1.00,-4,-2,-4,99,0
[11:46:01.744 29/11/2023],-236259.5,-188921.1,-216837.9,-262856.1,-242612.2,-212056.7,-241273.8,-243215.1,0.03,0.00,1.00,-4,-2,-4,99,0
[11:46:01.748 29/11/2023],-236297.7,-188959.8,-216889,-262869.7,-242623.7,-212115.8,-241306.1,-243224.5,0.03,0.00,1.00,-4,-2,-4,99,0
[11:46:01.752 29/11/2023],-236291.2,-188956.4,-216894,-262876.2,-242631.5,-212109.3,-241309.9,-243234.5,0.03,0.00,1.00,-4,-2,-4,99,0
[11:46:01.756 29/11/2023],-236242.5,-188912.7,-216837.2,-262839.7,-242590.2,-212074.5,-241266.6,-243209.9,0.03,0.00,1.00,-4,-2,-4,99,0
[11:46:01.760 29/11/2023],-236258,-188928,-216837,-262832.1,-242592.8,-212083.1,-241278.4,-243202.9,0.03,0.00,1.00,-4,-2,-4,99,0
[11:46:01.764 29/11/2023],-236271.2,-188941,-216840.5,-262877.1,-242597.8,-212094.1,-241279.8,-243234.7,0.05,-0.02,1.02,-4,-2,-4,99,0
[11:46:01.768 29/11/2023],-236282.2,-188944.4,-216847.5,-262887.8,-242605.8,-212100.7,-241293,-243234.7,0.05,-0.02,1.02,-4,-2,-4,99,0
[11:46:01.772 29/11/2023],-236247.9,-188911.8,-216816.9,-262869.2,-242593.8,-212097.8,-241269.6,-243223.4,0.05,-0.02,1.02,-4,-2,-4,99,0
[11:46:01.776 29/11/2023],-236226.7,-188892.6,-216798.3,-262843.8,-242577.3,-212063.1,-241247.8,-243208,0.05,-0.02,1.02,-4,-2,-4,99,0
[11:46:01.780 29/11/2023],-236259.5,-188921.1,-216837.9,-262856.1,-242612.2,-212056.7,-241273.8,-243215.1,0.05,-0.02,1.02,-4,-2,-4,99,0
[11:46:01.784 29/11/2023],-236297.7,-188959.8,-216889,-262869.7,-242623.7,-212115.8,-241306.1,-243224.5,0.05,-0.02,1.02,-4,-2,-4,99,0
[11:46:01.788 29/11/2023],-236291.2,-188956.4,-216894,-262876.2,-242631.5,-212109.3,-241309.9,-243234.5,0.05,-0.02,1.02,-4,-2,-4,99,0
[11:46:01.792 29/11/2023],-236242.5,-188912.7,-216837.2,-262839.7,-242590.2,-212074.5,-241266.6,-243209.9,0.05,-0.02,1.02,-4,-2,-4,99,0
[11:46:01.796 29/11/2023],-236258,-188928,-216837,-262832.1,-242592.8,-212083.1,-241278.4,-243202.9,0.05,-0.02,1.02,-4,-2,-4,99,0
[11:46:01.800 29/11/2023],-236313.5,-188980.9,-216891.1,-262864.7,-242618.4,-212173.5,-241326.4,-243227,0.05,0.00,1.00,-4,-2,-4,99,0
[11:46:01.804 29/11/2023],-236308.6,-188976.5,-216900.5,-262865,-242603.1,-212173.9,-241324.9,-243229,0.05,0.00,1.00,-4,-2,-4,99,0
[11:46:01.808 29/11/2023],-236261,-188936.5,-216857.3,-262827,-242595.2,-212094.2,-241286.2,-243201,0.05,0.00,1.00,-4,-2,-4,99,0
[11:46:01.812 29/11/2023],-236253.7,-188924.5,-216841.5,-262828.2,-242617,-212094.8,-241280.2,-243196.1,0.05,0.00,1.00,-4,-2,-4,99,0
[11:46:01.816 29/11/2023],-236292,-188957.2,-216882.8,-262851,-242642,-212132.4,-241311.6,-243214.5,0.05,0.00,1.00,-4,-2,-4,99,0
[11:46:01.820 29/11/2023],-236290.5,-188970.2,-216894.8,-262880.9,-242625.8,-212126.3,-241317.2,-243245,0.05,0.00,1.00,-4,-2,-4,99,0
[11:46:01.824 29/11/2023],-236212.9,-188923.8,-216857.6,-262844.1,-242618.1,-212131.2,-241279.6,-243212.9,0.05,0.00,1.00,-4,-2,-4,99,0
[11:46:01.828 29/11/2023],-236253.1,-188956.5,-216889.3,-262864.7,-242593.3,-212109.7,-241311,-243230.2,0.05,0.00,1.00,-4,-2,-4,99,0
[11:46:01.832 29/11/2023],-236271.3,-188974.3,-216913.5,-262877.4,-242596.5,-212142.3,-241325.8,-243236.2,0.05,0.00,1.00,-4,-2,-4,99,0
[11:46:01.836 29/11/2023],-236298.2,-188992.1,-216918.9,-262872.7,-242631.4,-212177.8,-241333.3,-243228,0.03,0.00,1.02,-4,-2,-4,99,0
[11:46:01.840 29/11/2023],-236252.4,-188954.9,-216871.6,-262842.7,-242616.1,-212150.1,-241298.6,-243212.1,0.03,0.00,1.02,-4,-2,-4,99,0
[11:46:01.844 29/11/2023],-236247.3,-188950.9,-216874.7,-262829.6,-242633.9,-212079.7,-241293.4,-243210.2,0.03,0.00,1.02,-4,-2,-4,99,0
[11:46:01.848 29/11/2023],-236274.4,-188978.9,-216907.4,-262859.4,-242644.8,-212093.1,-241320.3,-243229,0.03,0.00,1.02,-4,-2,-4,99,0
[11:46:01.852 29/11/2023],-236283.6,-188989.6,-216926.6,-262888.4,-242644.7,-212135.8,-241336.4,-243246.1,0.03,0.00,1.02,-4,-2,-4,99,0
[11:46:01.856 29/11/2023],-236230.8,-188940.8,-216879.4,-262860.8,-242624.7,-212165.3,-241294,-243221,0.03,0.00,1.02,-4,-2,-4,99,0
[11:46:01.860 29/11/2023],-236212.9,-188923.8,-216857.6,-262844.1,-242618.1,-212131.2,-241279.6,-243212.9,0.03,0.00,1.02,-4,-2,-4,99,0
[11:46:01.864 29/11/2023],-236253.1,-188956.5,-216889.3,-262864.7,-242593.3,-212109.7,-241311,-243230.2,0.03,0.00,1.02,-4,-2,-4,99,0
[11:46:01.868 29/11/2023],-236202.1,-188929.2,-216859,-262847,-242613.7,-212139.5,-241292.5,-243189.2,0.03,0.00,1.02,-4,-2,-4,99,0
[11:46:01.872 29/11/2023],-236236.5,-188948.9,-216888,-262859.4,-242627.1,-212117.9,-241292.4,-243221.5,0.03,0.00,1.02,-4,-2,-4,99,0
[11:46:01.876 29/11/2023],-236219.2,-188927.6,-216863.5,-262835.9,-242624.8,-212111.8,-241274.1,-243209.4,0.03,0.00,1.02,-4,-2,-4,99,0
[11:46:01.880 29/11/2023],-236239.6,-188947.1,-216874.2,-262849.7,-242619.3,-212140.6,-241303.8,-243217.8,0.03,0.00,1.02,-4,-2,-4,99,0
[11:46:01.884 29/11/2023],-236257.9,-188969.5,-216895.8,-262873.3,-242608,-212125,-241328.2,-243226.2,0.03,0.00,1.02,-4,-2,-4,99,0
[11:46:01.888 29/11/2023],-236231.7,-188945.8,-216875.5,-262845,-242629.3,-212077.8,-241308.2,-243224.5,0.03,0.00,1.02,-4,-2,-4,99,0
[11:46:01.892 29/11/2023],-236169.9,-188881.6,-216819.9,-262843.7,-242566.2,-212070,-241264.8,-243181.3,0.03,0.00,1.02,-4,-2,-4,99,0
[11:46:01.896 29/11/2023],-236206.5,-188914.5,-216853.2,-262857.8,-242571.1,-212073.5,-241284,-243190.5,0.03,0.00,1.02,-4,-2,-4,99,0
[11:46:01.900 29/11/2023],-236210.3,-188918.7,-216863.4,-262869.4,-242583.4,-212059.9,-241292,-243195.5,0.03,0.00,1.02,-4,-2,-4,99,0
[11:46:01.904 29/11/2023],-236145.5,-188860.9,-216810.1,-262844.9,-242576.8,-212039.3,-241244.4,-243174.3,0.03,0.00,1.02,-4,-2,-4,99,0
[11:46:01.908 29/11/2023],-236148.3,-188865,-216806.9,-262839.1,-242565.1,-212033.6,-241239.1,-243167.4,0.03,-0.02,1.02,-4,-2,-4,99,0
[11:46:01.912 29/11/2023],-236180.7,-188894.6,-216837,-262859.3,-242575.4,-212058.4,-241262,-243175.9,0.03,-0.02,1.02,-4,-2,-4,99,0
[11:46:01.916 29/11/2023],-236203.3,-188922.8,-216872.2,-262888.2,-242604,-212123.6,-241290.4,-243199.5,0.03,-0.02,1.02,-4,-2,-4,99,0
[11:46:01.920 29/11/2023],-236182.6,-188905.8,-216857.1,-262855.6,-242577.6,-212080.1,-241269.9,-243190.5,0.03,-0.02,1.02,-4,-2,-4,99,0
[11:46:01.924 29/11/2023],-236183.7,-188905.8,-216863.4,-262844.8,-242561.4,-212047.4,-241265.7,-243194.5,0.03,-0.02,1.02,-4,-2,-4,99,0
[11:46:01.928 29/11/2023],-236191.4,-188897.3,-216871.1,-262849.2,-242578.2,-212108.6,-241273.8,-243176.2,0.03,-0.02,1.02,-4,-2,-4,99,0
[11:46:01.932 29/11/2023],-236191,-188889.2,-216871.5,-262858.6,-242590.9,-212042.2,-241275,-243176.6,0.03,-0.02,1.02,-4,-2,-4,99,0
[11:46:01.936 29/11/2023],-236163.6,-188865.4,-216841.2,-262851.2,-242570,-212018.6,-241250.9,-243180.2,0.03,-0.02,1.02,-4,-2,-4,99,0
[11:46:01.940 29/11/2023],-236155.5,-188854.9,-216832.2,-262821.1,-242562.6,-212080.4,-241241,-243156.9,0.03,-0.02,1.02,-4,-2,-4,99,0
[11:46:01.944 29/11/2023],-236148.3,-188865,-216806.9,-262839.1,-242565.1,-212033.6,-241239.1,-243167.4,0.03,-0.02,1.02,-4,-2,-4,99,0
[11:46:01.948 29/11/2023],-236180.7,-188894.6,-216837,-262859.3,-242575.4,-212058.4,-241262,-243175.9,0.03,-0.02,1.02,-4,-2,-4,99,0
[11:46:01.952 29/11/2023],-236203.3,-188922.8,-216872.2,-262888.2,-242604,-212123.6,-241290.4,-243199.5,0.03,-0.02,1.02,-4,-2,-4,99,0
[11:46:01.956 29/11/2023],-236182.6,-188905.8,-216857.1,-262855.6,-242577.6,-212080.1,-241269.9,-243190.5,0.03,-0.02,1.02,-4,-2,-4,99,0
[11:46:01.960 29/11/2023],-236183.7,-188905.8,-216863.4,-262844.8,-242561.4,-212047.4,-241265.7,-243194.5,0.03,-0.02,1.02,-4,-2,-4,99,0
[11:46:01.964 29/11/2023],-236191.4,-188897.3,-216871.1,-262849.2,-242578.2,-212108.6,-241273.8,-243176.2,0.03,-0.02,1.02,-4,-2,-4,99,0
[11:46:01.968 29/11/2023],-236191,-188889.2,-216871.5,-262858.6,-242590.9,-212042.2,-241275,-243176.6,0.03,-0.02,1.02,-4,-2,-4,99,0
[11:46:01.972 29/11/2023],-236163.6,-188865.4,-216841.2,-262851.2,-242570,-212018.6,-241250.9,-243180.2,0.03,-0.02,1.02,-4,-2,-4,99,0
[11:46:01.976 29/11/2023],-236155.5,-188854.9,-216832.2,-262821.1,-242562.6,-212080.4,-241241,-243156.9,0.03,-0.02,1.02,-4,-2,-4,99,0
[11:46:01.980 29/11/2023],-236204,-188892.7,-216875.1,-262841.7,-242593.9,-212114,-241278.3,-243177.8,0.05,0.00,1.02,-4,-2,-4,99,0
[11:46:01.984 29/11/2023],-236217.2,-188901.3,-216885.5,-262850.8,-242561.3,-212112.9,-241286.6,-243180.3,0.05,0.00,1.02,-4,-2,-4,99,0
[11:46:01.988 29/11/2023],-236166.3,-188858.4,-216853.8,-262849.9,-242548.1,-212046.2,-241260.3,-243176.5,0.05,0.00,1.02,-4,-2,-4,99,0
[11:46:01.992 29/11/2023],-236156.9,-188850.5,-216833.6,-262828.3,-242560.8,-212020.7,-241254.9,-243173.2,0.05,0.00,1.02,-4,-2,-4,99,0
[11:46:01.996 29/11/2023],-236204.6,-188889.7,-216861.3,-262848.5,-242591.5,-212086.4,-241288.1,-243195.1,0.05,0.00,1.02,-4,-2,-4,99,0
[11:46:02.000 29/11/2023],-236228.4,-188912.9,-216875.2,-262865.5,-242594.4,-212101.8,-241304,-243200.7,0.05,0.00,1.02,-4,-2,-4,99,0
[11:46:02.004 29/11/2023],-236183.6,-188876.3,-216842.7,-262869,-242592.9,-212069.5,-241277.3,-243192.8,0.05,0.00,1.02,-4,-2,-4,99,0
[11:46:02.008 29/11/2023],-236121.9,-188817.1,-216783,-262819.3,-242545.9,-212006.5,-241225.8,-243151.5,0.05,0.00,1.02,-4,-2,-4,99,0
[11:46:02.012 29/11/2023],-236142.5,-188833.9,-216799.8,-262830.5,-242543,-212007,-241240.3,-243165.1,0.05,0.00,1.02,-4,-2,-4,99,0
[11:46:02.016 29/11/2023],-236186.6,-188871.4,-216842.3,-262859.7,-242556,-212003,-241275.5,-243182.1,0.03,0.00,1.02,-4,-2,-4,99,0
[11:46:02.020 29/11/2023],-236188,-188870.8,-216850,-262871.1,-242561.1,-212060.5,-241285.5,-243185.9,0.03,0.00,1.02,-4,-2,-4,99,0
[11:46:02.024 29/11/2023],-236143.2,-188828.3,-216809.7,-262822.9,-242519.6,-212027.3,-241242.6,-243159.1,0.03,0.00,1.02,-4,-2,-4,99,0
[11:46:02.028 29/11/2023],-236158.4,-188845,-216823.3,-262835.1,-242559.1,-212018.2,-241248.5,-243178.7,0.03,0.00,1.02,-4,-2,-4,99,0
[11:46:02.032 29/11/2023],-236176.3,-188860.8,-216849.2,-262853.3,-242570.2,-212065.4,-241258.3,-243175.2,0.03,0.00,1.02,-4,-2,-4,99,0
[11:46:02.036 29/11/2023],-236212.6,-188892.3,-216895.1,-262874.5,-242586.1,-212093,-241286.2,-243190.6,0.03,0.00,1.02,-4,-2,-4,99,0
[11:46:02.040 29/11/2023],-236184,-188865.7,-216865.2,-262849.9,-242574.4,-212072.3,-241261.5,-243181.3,0.03,0.00,1.02,-4,-2,-4,99,0
[11:46:02.044 29/11/2023],-236197.2,-188877.9,-216863.1,-262848.3,-242592.3,-212070.5,-241274.6,-243185,0.03,0.00,1.02,-4,-2,-4,99,0
[11:46:02.048 29/11/2023],-236218.3,-188897.3,-216879.8,-262855.9,-242571.7,-212005.2,-241292.1,-243189.4,0.03,0.00,1.02,-4,-2,-4,99,0
[11:46:02.052 29/11/2023],-236232.3,-188913.3,-216904.7,-262882.1,-242554.3,-212048,-241312.1,-243201.8,0.03,0.00,1.02,-4,-2,-4,99,0
[11:46:02.056 29/11/2023],-236180.8,-188867.3,-216854.3,-262851.6,-242548.3,-212067.5,-241273.6,-243176.2,0.03,0.00,1.02,-4,-2,-4,99,0
[11:46:02.060 29/11/2023],-236162,-188851.5,-216829.2,-262823.6,-242563.5,-212021.2,-241250.3,-243161.6,0.03,0.00,1.02,-4,-2,-4,99,0
[11:46:02.064 29/11/2023],-236179.7,-188851.4,-216855.5,-262851.5,-242561.3,-212051.5,-241270.2,-243157.3,0.03,-0.02,1.00,-4,-2,-4,99,0
[11:46:02.068 29/11/2023],-236155.2,-188828.4,-216830.6,-262851.7,-242546.8,-212019.2,-241254.3,-243158,0.03,-0.02,1.00,-4,-2,-4,99,0
[11:46:02.072 29/11/2023],-236131,-188801.1,-216797.2,-262818.2,-242531.8,-211910.8,-241223.7,-243146.7,0.03,-0.02,1.00,-4,-2,-4,99,0
[11:46:02.076 29/11/2023],-236175.7,-188838.4,-216838,-262836.9,-242571.8,-211959.8,-241256.7,-243165.3,0.03,-0.02,1.00,-4,-2,-4,99,0
[11:46:02.080 29/11/2023],-236217.3,-188869.6,-216887.2,-262852.3,-242573.6,-212065.4,-241291.4,-243164.3,0.03,-0.02,1.00,-4,-2,-4,99,0
[11:46:02.084 29/11/2023],-236219.9,-188871.6,-216887.7,-262869.3,-242585.3,-212105.8,-241289.1,-243179.1,0.03,-0.02,1.00,-4,-2,-4,99,0
[11:46:02.088 29/11/2023],-236143.6,-188821.3,-216811.8,-262854.8,-242554.6,-211971.9,-241239.1,-243158.2,0.03,-0.02,1.00,-4,-2,-4,99,0
[11:46:02.092 29/11/2023],-236110.3,-188785,-216787.2,-262810.5,-242525,-211980,-241208,-243129.8,0.03,-0.02,1.00,-4,-2,-4,99,0
[11:46:02.096 29/11/2023],-236157.3,-188830.1,-216836.1,-262831.4,-242546.2,-212038.3,-241248.6,-243145.1,0.03,-0.02,1.00,-4,-2,-4,99,0
[11:46:02.100 29/11/2023],-236179.7,-188851.4,-216855.5,-262851.5,-242561.3,-212051.5,-241270.2,-243157.3,0.03,-0.02,1.00,-4,-2,-4,99,0
[11:46:02.104 29/11/2023],-236155.2,-188828.4,-216830.6,-262851.7,-242546.8,-212019.2,-241254.3,-243158,0.03,-0.02,1.00,-4,-2,-4,99,0
[11:46:02.108 29/11/2023],-236131,-188801.1,-216797.2,-262818.2,-242531.8,-211910.8,-241223.7,-243146.7,0.03,-0.02,1.00,-4,-2,-4,99,0
[11:46:02.112 29/11/2023],-236175.7,-188838.4,-216838,-262836.9,-242571.8,-211959.8,-241256.7,-243165.3,0.03,-0.02,1.00,-4,-2,-4,99,0
[11:46:02.116 29/11/2023],-236217.3,-188869.6,-216887.2,-262852.3,-242573.6,-212065.4,-241291.4,-243164.3,0.03,-0.02,1.00,-4,-2,-4,99,0
[11:46:02.120 29/11/2023],-236219.9,-188871.6,-216887.7,-262869.3,-242585.3,-212105.8,-241289.1,-243179.1,0.03,-0.02,1.00,-4,-2,-4,99,0
[11:46:02.124 29/11/2023],-236161.5,-188821.2,-216831.5,-262828.6,-242532.4,-212053.1,-241236.7,-243155.8,0.05,0.00,1.02,-4,-2,-4,99,0
[11:46:02.128 29/11/2023],-236173.1,-188833.1,-216852.5,-262834.5,-242538.5,-212033.9,-241248.6,-243165.6,0.05,0.00,1.02,-4,-2,-4,99,0
[11:46:02.132 29/11/2023],-236184.7,-188849.4,-216870.4,-262850,-242560.4,-212045.9,-241263.5,-243170,0.05,0.00,1.02,-4,-2,-4,99,0
[11:46:02.136 29/11/2023],-236182.5,-188848.3,-216869.5,-262864,-242569.2,-212046.2,-241267.8,-243176.6,0.05,0.00,1.02,-4,-2,-4,99,0
[11:46:02.140 29/11/2023],-236137.2,-188798.2,-216819.9,-262824.5,-242535.5,-212021.9,-241229.5,-243140.7,0.05,0.00,1.02,-4,-2,-4,99,0
[11:46:02.144 29/11/2023],-236170,-188826.5,-216852.2,-262829.3,-242549,-212004.2,-241249.8,-243157.3,0.05,0.00,1.02,-4,-2,-4,99,0
[11:46:02.148 29/11/2023],-236204.8,-188857.1,-216886.6,-262860.2,-242567.4,-211994.1,-241275.8,-243178.7,0.05,0.00,1.02,-4,-2,-4,99,0
[11:46:02.152 29/11/2023],-236235.8,-188875,-216911.3,-262885.7,-242567.3,-212084.3,-241300.8,-243196.9,0.05,0.00,1.02,-4,-2,-4,99,0
[11:46:02.156 29/11/2023],-236190.4,-188834.4,-216860.4,-262844.1,-242557.9,-212078.5,-241254.4,-243162.3,0.05,0.00,1.02,-4,-2,-4,99,0
[11:46:02.160 29/11/2023],-236190.7,-188827.9,-216852.2,-262825.8,-242572.6,-212080,-241249.3,-243157.2,0.03,0.00,1.00,-4,-2,-4,99,0
[11:46:02.164 29/11/2023],-236225.6,-188858.7,-216885.4,-262852.8,-242584.1,-212075.1,-241278.2,-243181.4,0.03,0.00,1.00,-4,-2,-4,99,0
[11:46:02.168 29/11/2023],-236248.6,-188885.6,-216912.5,-262877.8,-242604.8,-212041,-241297.8,-243200.9,0.03,0.00,1.00,-4,-2,-4,99,0
[11:46:02.172 29/11/2023],-236202.5,-188845.9,-216870.6,-262860.1,-242576,-212031.5,-241262.6,-243172.3,0.03,0.00,1.00,-4,-2,-4,99,0
[11:46:02.176 29/11/2023],-236186.3,-188827,-216849.7,-262833.8,-242566.6,-212053.1,-241246.2,-243153.3,0.03,0.00,1.00,-4,-2,-4,99,0
[11:46:02.180 29/11/2023],-236207.2,-188844.8,-216864.6,-262850.3,-242578.3,-212070.9,-241261.2,-243172.4,0.03,0.00,1.00,-4,-2,-4,99,0
[11:46:02.184 29/11/2023],-236232.2,-188900.9,-216924.9,-262882.7,-242602.9,-212094,-241284.8,-243218.7,0.05,-0.02,1.02,-4,-2,-4,99,0
[11:46:02.188 29/11/2023],-236200.9,-188868.1,-216892.9,-262844.7,-242575.6,-212081.2,-241258.4,-243192.6,0.05,-0.02,1.02,-4,-2,-4,99,0
[11:46:02.192 29/11/2023],-236224.9,-188884.8,-216914.4,-262846.7,-242607.4,-212037.4,-241273.5,-243196.1,0.05,-0.02,1.02,-4,-2,-4,99,0
[11:46:02.196 29/11/2023],-236222.9,-188867.6,-216888.1,-262849,-242612.4,-212060,-241270.4,-243185.7,0.05,-0.02,1.02,-4,-2,-4,99,0
[11:46:02.200 29/11/2023],-236257.1,-188895.5,-216927.4,-262862.6,-242605.7,-212061.2,-241295.2,-243188.1,0.05,-0.02,1.02,-4,-2,-4,99,0
[11:46:02.204 29/11/2023],-236238.8,-188890.5,-216925.6,-262876.5,-242609.7,-212091.5,-241291.1,-243195.5,0.05,-0.02,1.02,-4,-2,-4,99,0
[11:46:02.208 29/11/2023],-236207.5,-188862,-216895.1,-262836.6,-242592.5,-212059.3,-241260.5,-243178.8,0.05,-0.02,1.02,-4,-2,-4,99,0
[11:46:02.212 29/11/2023],-236236.1,-188888.3,-216917,-262854.2,-242615.2,-212091.5,-241281.9,-243202.7,0.05,-0.02,1.02,-4,-2,-4,99,0
[11:46:02.216 29/11/2023],-236252.5,-188909.7,-216938.4,-262873.8,-242607.8,-212079.4,-241296.4,-243211.6,0.05,-0.02,1.02,-4,-2,-4,99,0
[11:46:02.220 29/11/2023],-236232.2,-188900.9,-216924.9,-262882.7,-242602.9,-212094,-241284.8,-243218.7,0.05,-0.02,1.02,-4,-2,-4,99,0
[11:46:02.224 29/11/2023],-236200.9,-188868.1,-216892.9,-262844.7,-242575.6,-212081.2,-241258.4,-243192.6,0.05,-0.02,1.02,-4,-2,-4,99,0
[11:46:02.228 29/11/2023],-236224.9,-188884.8,-216914.4,-262846.7,-242607.4,-212037.4,-241273.5,-243196.1,0.05,-0.02,1.02,-4,-2,-4,99,0
[11:46:02.232 29/11/2023],-236249.1,-188904.5,-216936.5,-262858.9,-242619.9,-212072.2,-241292.8,-243198.1,0.05,-0.02,1.02,-4,-2,-4,99,0
[11:46:02.236 29/11/2023],-236258.8,-188920.8,-216948.5,-262875.2,-242640.3,-212146,-241305.4,-243210.5,0.05,-0.02,1.02,-4,-2,-4,99,0
[11:46:02.240 29/11/2023],-236214.7,-188883.3,-216906.6,-262845.5,-242615.5,-212138,-241267,-243195.5,0.05,-0.02,1.02,-4,-2,-4,99,0
[11:46:02.244 29/11/2023],-236249,-188917.3,-216943.3,-262850.8,-242630.1,-212121.1,-241291.2,-243220,0.05,-0.02,1.02,-4,-2,-4,99,0
[11:46:02.248 29/11/2023],-236277.6,-188947.6,-216978.6,-262865.1,-242635,-212107,-241315.5,-243229.7,0.05,-0.02,1.02,-4,-2,-4,99,0
[11:46:02.252 29/11/2023],-236280.2,-188954.8,-216979.1,-262886.1,-242627.9,-212144.7,-241319.5,-243237.4,0.05,-0.02,1.02,-4,-2,-4,99,0
[11:46:02.256 29/11/2023],-236224.8,-188901,-216919.6,-262861.8,-242625.7,-212119.4,-241277.2,-243217.7,0.05,-0.02,1.02,-4,-2,-4,99,0
[11:46:02.260 29/11/2023],-236216.6,-188886.8,-216901.5,-262845.1,-242627.9,-212110.8,-241270.5,-243209.6,0.05,-0.02,1.02,-4,-2,-4,99,0
[11:46:02.264 29/11/2023],-236231.5,-188902.8,-216906.4,-262854.1,-242627.3,-212134.9,-241281.8,-243207.9,0.05,-0.02,1.02,-4,-2,-4,99,0
[11:46:02.268 29/11/2023],-236244.3,-188918.1,-216917.2,-262874.7,-242637.6,-212158.3,-241292.5,-243224.2,0.03,0.00,1.02,-4,-2,-4,99,0
[11:46:02.272 29/11/2023],-236209.8,-188891.3,-216889.4,-262858,-242629.8,-212114.9,-241270.9,-243217.1,0.03,0.00,1.02,-4,-2,-4,99,0
[11:46:02.276 29/11/2023],-236182.5,-188872.2,-216842.6,-262826.1,-242596.8,-212052,-241247.3,-243201.4,0.03,0.00,1.02,-4,-2,-4,99,0
[11:46:02.280 29/11/2023],-236228.3,-188908.3,-216889.6,-262840.8,-242608.1,-212162.8,-241283.1,-243182,0.03,0.00,1.02,-4,-2,-4,99,0
[11:46:02.284 29/11/2023],-236207.8,-188891.1,-216865.2,-262840.3,-242582.8,-212127.1,-241266.1,-243177.8,0.03,0.00,1.02,-4,-2,-4,99,0
[11:46:02.288 29/11/2023],-236145.4,-188839.6,-216793.4,-262799.4,-242564.5,-212065.4,-241212.5,-243155.2,0.03,0.00,1.02,-4,-2,-4,99,0
[11:46:02.292 29/11/2023],-236161.5,-188860.4,-216806.6,-262805.6,-242592.4,-212057.3,-241232.6,-243155.5,0.03,0.00,1.02,-4,-2,-4,99,0
[11:46:02.296 29/11/2023],-236213.3,-188906.2,-216847.3,-262838.3,-242599.4,-212087.8,-241271.5,-243176.5,0.03,0.00,1.02,-4,-2,-4,99,0
[11:46:02.300 29/11/2023],-236205,-188899.5,-216839,-262855,-242588,-212029.3,-241265.6,-243183,0.03,0.00,1.02,-4,-2,-4,99,0
[11:46:02.304 29/11/2023],-236203,-188888.6,-216869.2,-262863.9,-242608.9,-212070.7,-241269.6,-243191.5,0.03,0.00,1.02,-4,-2,-4,99,0
[11:46:02.308 29/11/2023],-236162.7,-188857.7,-216827.9,-262823,-242596.1,-211950.4,-241231.1,-243173.3,0.03,0.00,1.02,-4,-2,-4,99,0
[11:46:02.312 29/11/2023],-236182.5,-188872.2,-216842.6,-262826.1,-242596.8,-212052,-241247.3,-243177.8,0.03,0.00,1.02,-4,-2,-4,99,0
[11:46:02.316 29/11/2023],-236228.3,-188908.3,-216889.6,-262840.8,-242608.1,-212162.8,-241283.1,-243182,0.03,0.00,1.02,-4,-2,-4,99,0
[11:46:02.320 29/11/2023],-236207.8,-188891.1,-216865.2,-262840.3,-242582.8,-212127.1,-241266.1,-243177.8,0.03,0.00,1.02,-4,-2,-4,99,0
[11:46:02.324 29/11/2023],-236145.4,-188839.6,-216793.4,-262799.4,-242564.5,-212065.4,-241212.5,-243155.2,0.03,0.00,1.02,-4,-2,-4,99,0
[11:46:02.328 29/11/2023],-236161.5,-188860.4,-216806.6,-262805.6,-242592.4,-212057.3,-241232.6,-243155.5,0.03,0.00,1.02,-4,-2,-4,99,0
[11:46:02.332 29/11/2023],-236213.3,-188906.2,-216847.3,-262838.3,-242599.4,-212087.8,-241271.5,-243176.5,0.03,0.00,1.02,-4,-2,-4,99,0
[11:46:02.336 29/11/2023],-236205,-188899.5,-216839,-262855,-242588,-212029.3,-241265.6,-243183,0.03,0.00,1.02,-4,-2,-4,99,0
[11:46:02.340 29/11/2023],-236150.3,-188856.5,-216784.6,-262819.3,-242560.5,-211938.4,-241215.6,-243166.1,0.03,0.00,1.02,-4,-2,-4,99,0
[11:46:02.344 29/11/2023],-236173.6,-188876.4,-216807.7,-262813.8,-242581.5,-212035.2,-241231,-243172.9,0.03,0.00,1.02,-4,-2,-4,99,0
[11:46:02.348 29/11/2023],-236222.8,-188910.2,-216849.6,-262826.5,-242587.1,-212119.3,-241275.1,-243173.6,0.03,0.00,1.02,-4,-2,-4,99,0
[11:46:02.352 29/11/2023],-236247.3,-188935.1,-216877.4,-262844.9,-242590.5,-212116.5,-241297.4,-243188.8,0.03,0.00,1.02,-4,-2,-4,99,0
[11:46:02.356 29/11/2023],-236178.4,-188874.6,-216808.9,-262809.5,-242573.8,-212065.6,-241239.9,-243162,0.03,0.00,1.02,-4,-2,-4,99,0
[11:46:02.360 29/11/2023],-236152.1,-188849.4,-216779.6,-262787.4,-242571.6,-212030.9,-241216.3,-243157,0.03,0.00,1.02,-4,-2,-4,99,0
[11:46:02.364 29/11/2023],-236180.4,-188873.4,-216802.1,-262810.3,-242587,-212031.1,-241239.9,-243172.5,0.03,0.00,1.02,-4,-2,-4,99,0
[11:46:02.368 29/11/2023],-236194,-188887.3,-216819.6,-262815.9,-242575.5,-212058.9,-241256,-243161.8,0.03,0.00,1.02,-4,-2,-4,99,0
[11:46:02.372 29/11/2023],-236165.2,-188861.6,-216796.5,-262801.7,-242595,-211997.1,-241238.8,-243151.1,0.03,0.00,1.02,-4,-2,-4,99,0
[11:46:02.376 29/11/2023],-236178.7,-188875.1,-216802.6,-262787.9,-242578.3,-212031.2,-241244.3,-243158,0.03,-0.02,1.03,-4,-2,-4,99,0
[11:46:02.380 29/11/2023],-236199.7,-188894.3,-216819.7,-262799,-242556.5,-212064.1,-241253.7,-243163.1,0.03,-0.02,1.03,-4,-2,-4,99,0
[11:46:02.384 29/11/2023],-236195.6,-188896.7,-216821.7,-262812.1,-242575.2,-212074.6,-241255.7,-243164.6,0.03,-0.02,1.03,-4,-2,-4,99,0
[11:46:02.388 29/11/2023],-236182.1,-188889.9,-216810,-262809.1,-242589.3,-212051,-241253.8,-243170.9,0.03,-0.02,1.03,-4,-2,-4,99,0
[11:46:02.392 29/11/2023],-236221.2,-188931.1,-216836.6,-262813.6,-242568.8,-212014.3,-241276.1,-243199.3,0.03,-0.02,1.03,-4,-2,-4,99,0
[11:46:02.396 29/11/2023],-236237.4,-188935.8,-216856.6,-262817.2,-242589.2,-212121.8,-241289,-243187.2,0.03,-0.02,1.03,-4,-2,-4,99,0
[11:46:02.400 29/11/2023],-236238.1,-188937.6,-216859,-262830.3,-242604.4,-212108.4,-241291.5,-243192.1,0.03,-0.02,1.03,-4,-2,-4,99,0
[11:46:02.404 29/11/2023],-236201.6,-188905.4,-216825.8,-262794.2,-242569.6,-212076,-241258.3,-243172.2,0.03,-0.02,1.03,-4,-2,-4,99,0
[11:46:02.408 29/11/2023],-236218.4,-188919.8,-216845.7,-262787.7,-242576.5,-212079.9,-241272.2,-243178.8,0.03,-0.02,1.03,-4,-2,-4,99,0
[11:46:02.412 29/11/2023],-236234.4,-188926.6,-216849.1,-262806.9,-242584.3,-212100.4,-241282.9,-243182.4,0.05,0.00,1.00,-4,-2,-4,99,0
[11:46:02.416 29/11/2023],-236252.8,-188948.3,-216867,-262829.3,-242593.2,-212089.9,-241307.9,-243193.7,0.05,0.00,1.00,-4,-2,-4,99,0
[11:46:02.420 29/11/2023],-236240.8,-188944.4,-216852.3,-262844.5,-242597.8,-212074.6,-241303.7,-243212.3,0.05,0.00,1.00,-4,-2,-4,99,0
[11:46:02.424 29/11/2023],-236203.7,-188915.9,-216813.6,-262813.7,-242556.4,-211984.8,-241267.4,-243202.1,0.05,0.00,1.00,-4,-2,-4,99,0
[11:46:02.428 29/11/2023],-236203.8,-188902.4,-216826.7,-262784.1,-242542.1,-212037.3,-241258.9,-243158.6,0.05,0.00,1.00,-4,-2,-4,99,0
[11:46:02.432 29/11/2023],-236233,-188931.3,-216848.8,-262804.5,-242565.2,-212047.2,-241280.8,-243172.4,0.05,0.00,1.00,-4,-2,-4,99,0
[11:46:02.436 29/11/2023],-236212.6,-188910.9,-216822.7,-262791,-242564.3,-212032.7,-241261.1,-243167.6,0.05,0.00,1.00,-4,-2,-4,99,0
[11:46:02.440 29/11/2023],-236208.2,-188899.2,-216813.2,-262762.2,-242570.9,-212042.5,-241248.1,-243154.1,0.05,0.00,1.00,-4,-2,-4,99,0
[11:46:02.444 29/11/2023],-236245.7,-188929.4,-216837.2,-262786.6,-242576.8,-212057.4,-241272.6,-243167.5,0.05,0.00,1.00,-4,-2,-4,99,0
[11:46:02.448 29/11/2023],-236262.9,-188947.5,-216851.3,-262811,-242576.5,-212083.2,-241284.9,-243180.6,0.03,0.00,1.02,-4,-2,-4,99,0
[11:46:02.452 29/11/2023],-236227.1,-188913.7,-216828.2,-262799,-242567.9,-212062.1,-241265.8,-243170.5,0.03,0.00,1.02,-4,-2,-4,99,0
[11:46:02.456 29/11/2023],-236195.2,-188887.1,-216801.8,-262767.6,-242537.2,-212009.6,-241234.7,-243156.2,0.03,0.00,1.02,-4,-2,-4,99,0
[11:46:02.460 29/11/2023],-236217.2,-188913,-216818.3,-262795.8,-242555,-211981.3,-241246,-243182,0.03,0.00,1.02,-4,-2,-4,99,0
[11:46:02.464 29/11/2023],-236242.8,-188938.3,-216838,-262821.7,-242567.6,-212012.3,-241266.9,-243186.6,0.03,0.00,1.02,-4,-2,-4,99,0
[11:46:02.468 29/11/2023],-236230.8,-188928.1,-216832,-262832.7,-242571,-212052.9,-241269.5,-243192.9,0.03,0.00,1.02,-4,-2,-4,99,0
[11:46:02.472 29/11/2023],-236196.1,-188892.1,-216792.3,-262791.3,-242537,-212016.4,-241239.1,-243167.8,0.03,0.00,1.02,-4,-2,-4,99,0
[11:46:02.476 29/11/2023],-236222.4,-188915.5,-216819.2,-262801.3,-242567.4,-212057.9,-241256,-243173.8,0.03,0.00,1.02,-4,-2,-4,99,0
[11:46:02.480 29/11/2023],-236256,-188943.1,-216852.4,-262833,-242589.2,-212036.5,-241281.4,-243191.4,0.03,0.00,1.02,-4,-2,-4,99,0
[11:46:02.484 29/11/2023],-236262.9,-188947.5,-216851.3,-262811,-242576.5,-212083.2,-241284.9,-243180.6,0.05,0.00,1.02,-4,-2,-4,99,0
[11:46:02.488 29/11/2023],-236227.1,-188913.7,-216828.2,-262799,-242567.9,-212062.1,-241265.8,-243170.5,0.05,0.00,1.02,-4,-2,-4,99,0
[11:46:02.492 29/11/2023],-236195.2,-188887.1,-216801.8,-262767.6,-242537.2,-212009.6,-241234.7,-243156.2,0.05,0.00,1.02,-4,-2,-4,99,0
[11:46:02.496 29/11/2023],-236217.2,-188913,-216818.3,-262795.8,-242555,-211981.3,-241246,-243182,0.05,0.00,1.02,-4,-2,-4,99,0
[11:46:02.500 29/11/2023],-236242.8,-188938.3,-216838,-262821.7,-242567.6,-212012.3,-241266.9,-243186.6,0.05,0.00,1.02,-4,-2,-4,99,0
[11:46:02.504 29/11/2023],-236230.8,-188928.1,-216832,-262832.7,-242571,-212052.9,-241269.5,-243192.9,0.05,0.00,1.02,-4,-2,-4,99,0
[11:46:02.508 29/11/2023],-236218.9,-188915.1,-216835,-262811.3,-242570.1,-212016.4,-241239.1,-243167.8,0.05,0.00,1.02,-4,-2,-4,99,0
[11:46:02.512 29/11/2023],-236250.4,-188939.9,-216864.9,-262837.3,-242591.3,-212103.6,-241278.4,-243182.4,0.05,0.00,1.02,-4,-2,-4,99,0
[11:46:02.516 29/11/2023],-236263.1,-188950.5,-216882.4,-262850,-242577.8,-212088.9,-241289.6,-243186.6,0.05,0.00,1.02,-4,-2,-4,99,0
[11:46:02.520 29/11/2023],-236248.6,-188945.9,-216855.3,-262859.8,-242581.5,-211976.6,-241281.5,-243213,0.03,0.00,1.02,-4,-2,-4,99,0
[11:46:02.524 29/11/2023],-236183.5,-188892.2,-216793.8,-262815.8,-242526.7,-212017.5,-241231.2,-243167.4,0.03,0.00,1.02,-4,-2,-4,99,0
[11:46:02.528 29/11/2023],-236200.8,-188902,-216799.2,-262804.8,-242541.6,-212079.3,-241242.2,-243154.1,0.03,0.00,1.02,-4,-2,-4,99,0
[11:46:02.532 29/11/2023],-236251.8,-188942.6,-216839.4,-262820.5,-242550.7,-212092.1,-241276.7,-243166,0.03,0.00,1.02,-4,-2,-4,99,0
[11:46:02.536 29/11/2023],-236252,-188948.5,-216851.6,-262837.5,-242565,-212057.8,-241278.8,-243177,0.03,0.00,1.02,-4,-2,-4,99,0
[11:46:02.540 29/11/2023],-236193.3,-188898.3,-216809.6,-262803.3,-242544.8,-211928.7,-241237,-243155.6,0.03,0.00,1.02,-4,-2,-4,99,0
[11:46:02.544 29/11/2023],-236243.7,-188948.3,-216875.3,-262832.6,-242580,-212015.5,-241277.5,-243177.9,0.03,0.00,1.02,-4,-2,-4,99,0
[11:46:02.548 29/11/2023],-236284.5,-188989.5,-216914.1,-262868.5,-242603.2,-212002.4,-241309.7,-243211.7,0.03,0.00,1.02,-4,-2,-4,99,0
[11:46:02.552 29/11/2023],-236267.9,-188979.6,-216915.7,-262869.7,-242586.3,-212103.6,-241299.3,-243208.7,0.03,0.00,1.02,-4,-2,-4,99,0
[11:46:02.556 29/11/2023],-236243.5,-188959.1,-216906.6,-262840.5,-242592.1,-212087.4,-241279.9,-243185.1,0.03,0.00,1.02,-4,-2,-4,99,0
[11:46:02.560 29/11/2023],-236266.2,-188983.6,-216920.6,-262847.1,-242573.2,-212080.1,-241287.8,-243188.4,0.03,0.00,1.02,-4,-2,-4,99,0
[11:46:02.564 29/11/2023],-236293.3,-189012.2,-216940.4,-262860.6,-242587.4,-212045.2,-241300.3,-243198.7,0.03,0.00,1.02,-4,-2,-4,99,0
[11:46:02.568 29/11/2023],-236280.2,-188996.5,-216930.9,-262872.5,-242584.7,-212065,-241300.6,-243204.7,0.03,0.00,1.02,-4,-2,-4,99,0
[11:46:02.572 29/11/2023],-236227.9,-188944.2,-216883.8,-262834,-242568.4,-212047,-241262.1,-243174.5,0.03,0.00,1.02,-4,-2,-4,99,0
[11:46:02.576 29/11/2023],-236239.6,-188956,-216895.6,-262838.1,-242616,-212094.4,-241272.8,-243178.4,0.03,0.00,1.02,-4,-2,-4,99,0
[11:46:02.580 29/11/2023],-236265.6,-188977.6,-216921,-262854.8,-242587.6,-212111.8,-241291.9,-243181.2,0.03,0.00,1.02,-4,-2,-4,99,0
[11:46:02.584 29/11/2023],-236252.5,-188967.2,-216912.6,-262865,-242573.1,-212072.2,-241283.5,-243193.1,0.03,0.00,1.02,-4,-2,-4,99,0
[11:46:02.588 29/11/2023],-236209.1,-188922,-216881.2,-262830.8,-242563.3,-212016.3,-241249.3,-243168.1,0.03,0.00,1.02,-4,-2,-4,99,0
[11:46:02.592 29/11/2023],-236243.5,-188959.1,-216906.6,-262840.5,-242592.1,-212087.4,-241279.9,-243185.1,0.03,0.00,1.02,-4,-2,-4,99,0
[11:46:02.596 29/11/2023],-236266.2,-188983.6,-216920.6,-262847.1,-242573.2,-212080.1,-241287.8,-243188.4,0.03,0.00,1.02,-4,-2,-4,99,0
[11:46:02.600 29/11/2023],-236293.3,-189012.2,-216940.4,-262860.6,-242587.4,-212045.2,-241300.3,-243198.7,0.03,0.00,1.02,-4,-2,-4,99,0
[11:46:02.604 29/11/2023],-236280.2,-188996.5,-216930.9,-262872.5,-242584.7,-212065,-241300.6,-243204.7,0.03,0.00,1.02,-4,-2,-4,99,0
[11:46:02.608 29/11/2023],-236227.9,-188944.2,-216883.8,-262834,-242568.4,-212047,-241262.1,-243174.5,0.03,0.00,1.02,-4,-2,-4,99,0
[11:46:02.612 29/11/2023],-236239.6,-188956,-216895.6,-262838.1,-242616,-212094.4,-241272.8,-243178.4,0.03,0.00,1.02,-4,-2,-4,99,0
[11:46:02.616 29/11/2023],-236221.5,-188932.7,-216888.5,-262875.8,-242577.3,-212103.4,-241272,-243179.1,0.03,0.00,1.02,-4,-2,-4,99,0
[11:46:02.620 29/11/2023],-236185.2,-188906,-216855.3,-262856.6,-242573.1,-212086.7,-241244.4,-243178.1,0.03,0.00,1.02,-4,-2,-4,99,0
[11:46:02.624 29/11/2023],-236183.5,-188898.5,-216856.2,-262834,-242551.4,-212038.8,-241237.8,-243166.9,0.03,0.00,1.02,-4,-2,-4,99,0
[11:46:02.628 29/11/2023],-236235.8,-188945.1,-216907,-262851.6,-242590.8,-212048.7,-241271.1,-243189.3,0.05,0.00,1.02,-4,-2,-4,99,0
[11:46:02.632 29/11/2023],-236251.9,-188962.5,-216917.3,-262869.1,-242588.8,-212112.1,-241285.5,-243194.4,0.05,0.00,1.02,-4,-2,-4,99,0
[11:46:02.636 29/11/2023],-236227.4,-188940.6,-216897.3,-262870,-242584,-212097.7,-241273.6,-243184.3,0.05,0.00,1.02,-4,-2,-4,99,0
[11:46:02.640 29/11/2023],-236167,-188886.3,-216838.8,-262833.2,-242556,-212041.1,-241229.6,-243155.3,0.05,0.00,1.02,-4,-2,-4,99,0
[11:46:02.644 29/11/2023],-236168.3,-188887.3,-216839.7,-262841.6,-242563.6,-212002.2,-241231.5,-243171.1,0.05,0.00,1.02,-4,-2,-4,99,0
[11:46:02.648 29/11/2023],-236197.5,-188911.3,-216868,-262859.3,-242559.9,-212013.8,-241250.7,-243181.2,0.05,0.00,1.02,-4,-2,-4,99,0
[11:46:02.652 29/11/2023],-236221.5,-188932.7,-216888.5,-262875.8,-242577.3,-212103.4,-241272,-243179.1,0.05,0.00,1.02,-4,-2,-4,99,0
[11:46:02.656 29/11/2023],-236185.2,-188906,-216855.3,-262856.6,-242573.1,-212086.7,-241244.4,-243178.1,0.05,0.00,1.02,-4,-2,-4,99,0
[11:46:02.660 29/11/2023],-236183.5,-188898.5,-216856.2,-262834,-242551.4,-212038.8,-241237.8,-243166.9,0.05,0.00,1.02,-4,-2,-4,99,0
[11:46:02.664 29/11/2023],-236207.7,-188914.3,-216879.1,-262838.8,-242554.5,-212012.9,-241248.6,-243162.7,0.03,0.00,1.02,-4,-2,-4,99,0
[11:46:02.668 29/11/2023],-236223.5,-188929.9,-216901.7,-262852.7,-242577.3,-212096.4,-241263.6,-243172.4,0.03,0.00,1.02,-4,-2,-4,99,0
[11:46:02.672 29/11/2023],-236149.4,-188866,-216843.3,-262830.1,-242554.9,-212070.4,-241218.9,-243145.3,0.03,0.00,1.02,-4,-2,-4,99,0
[11:46:02.676 29/11/2023],-236136.6,-188858.1,-216836.4,-262808.5,-242524,-212027.2,-241202.5,-243131.1,0.03,0.00,1.02,-4,-2,-4,99,0
[11:46:02.680 29/11/2023],-236156.9,-188881.4,-216856.1,-262825.7,-242537,-212028.1,-241213.7,-243140.4,0.03,0.00,1.02,-4,-2,-4,99,0
[11:46:02.684 29/11/2023],-236182,-188911,-216883.7,-262850.3,-242549.1,-212013.5,-241235.8,-243158.4,0.03,0.00,1.02,-4,-2,-4,99,0
[11:46:02.688 29/11/2023],-236149.3,-188881,-216855.3,-262846.4,-242536.8,-211960.6,-241214.8,-243157.6,0.03,0.00,1.02,-4,-2,-4,99,0
[11:46:02.692 29/11/2023],-236118.3,-188843.4,-216821.8,-262798.8,-242494.3,-211995.7,-241182.1,-243120.9,0.03,0.00,1.02,-4,-2,-4,99,0
[11:46:02.696 29/11/2023],-236215.5,-188926.1,-216907.9,-262865.3,-242575.5,-211990.7,-241269.3,-243179.1,0.03,0.00,1.02,-4,-2,-4,99,0
[11:46:02.700 29/11/2023],-236221.4,-188931,-216920.3,-262885.5,-242589.3,-212048,-241279.1,-243194.3,0.05,0.00,1.02,-4,-2,-4,95,0
[11:46:02.704 29/11/2023],-236172.6,-188883.1,-216868.1,-262848,-242554.7,-212069.1,-241240.4,-243160.3,0.05,0.00,1.02,-4,-2,-4,95,0
[11:46:02.708 29/11/2023],-236192.4,-188906.1,-216881.2,-262858.3,-242572.3,-212019.1,-241255.9,-243180.1,0.05,0.00,1.02,-4,-2,-4,95,0
[11:46:02.712 29/11/2023],-236216.5,-188929,-216901.7,-262872.7,-242575.8,-212040.1,-241273.8,-243184.6,0.05,0.00,1.02,-4,-2,-4,95,0
[11:46:02.716 29/11/2023],-236228.7,-188941.3,-216919.2,-262885.4,-242562.9,-212105,-241289,-243183.9,0.05,0.00,1.02,-4,-2,-4,95,0
[11:46:02.720 29/11/2023],-236187.8,-188907.7,-216881.8,-262862.5,-242520.4,-212035.2,-241253,-243171.5,0.05,0.00,1.02,-4,-2,-4,95,0
[11:46:02.724 29/11/2023],-236183.9,-188901.7,-216875.8,-262857.5,-242529.7,-212021.3,-241245.9,-243174.1,0.05,0.00,1.02,-4,-2,-4,95,0
[11:46:02.728 29/11/2023],-236209.2,-188921.3,-216898,-262872.8,-242571,-212068,-241269.6,-243178.2,0.05,0.00,1.02,-4,-2,-4,95,0
[11:46:02.732 29/11/2023],-236227.3,-188946.5,-216913.6,-262904.3,-242576,-211994.4,-241285.1,-243203.9,0.05,0.00,1.02,-4,-2,-4,95,0
[11:46:02.736 29/11/2023],-236221.4,-188931,-216920.3,-262885.5,-242589.3,-212048,-241279.1,-243194.3,0.05,0.00,1.02,-4,-2,-4,95,0
[11:46:02.740 29/11/2023],-236172.6,-188883.1,-216868.1,-262848,-242554.7,-212069.1,-241240.4,-243160.3,0.05,0.00,1.02,-4,-2,-4,95,0
[11:46:02.744 29/11/2023],-236192.4,-188906.1,-216881.2,-262858.3,-242572.3,-212019.1,-241255.9,-243180.1,0.05,0.00,1.02,-4,-2,-4,95,0
[11:46:02.748 29/11/2023],-236216.5,-188929,-216901.7,-262872.7,-242575.8,-212040.1,-241273.8,-243184.6,0.05,0.00,1.02,-4,-2,-4,95,0
[11:46:02.752 29/11/2023],-236228.7,-188941.3,-216919.2,-262885.4,-242562.9,-212105,-241289,-243183.9,0.05,0.00,1.02,-4,-2,-4,95,0
[11:46:02.756 29/11/2023],-236187.8,-188907.7,-216881.8,-262862.5,-242520.4,-212035.2,-241253,-243171.5,0.05,0.00,1.02,-4,-2,-4,95,0
[11:46:02.760 29/11/2023],-236183.9,-188901.7,-216875.8,-262857.5,-242529.7,-212021.3,-241245.9,-243174.1,0.05,0.00,1.02,-4,-2,-4,95,0
[11:46:02.764 29/11/2023],-236209.2,-188921.3,-216898,-262872.8,-242571,-212068,-241269.6,-243178.2,0.05,0.00,1.02,-4,-2,-4,95,0
[11:46:02.768 29/11/2023],-236227.3,-188946.5,-216913.6,-262904.3,-242576,-211994.4,-241285.1,-243203.9,0.05,0.00,1.02,-4,-2,-4,95,0
[11:46:02.772 29/11/2023],-236183.3,-188904.9,-216867.7,-262899.3,-242563.8,-212002.8,-241254.2,-243191.4,0.03,0.00,1.00,-4,-2,-4,95,0
[11:46:02.776 29/11/2023],-236179.9,-188898,-216870.4,-262856.5,-242557.6,-212075.7,-241245.8,-243154.5,0.03,0.00,1.00,-4,-2,-4,95,0
[11:46:02.780 29/11/2023],-236228.8,-188939.6,-216918.8,-262877.5,-242553.2,-212111.2,-241286,-243170.4,0.03,0.00,1.00,-4,-2,-4,95,0
[11:46:02.784 29/11/2023],-236216.6,-188926.7,-216910.8,-262890.1,-242556.1,-212072,-241283.8,-243182,0.03,0.00,1.02,-4,-2,-4,95,0
[11:46:02.788 29/11/2023],-236166.2,-188874.2,-216858.9,-262858.6,-242531.5,-212029.4,-241244.1,-243165.8,0.03,0.00,1.02,-4,-2,-4,95,0
[11:46:02.792 29/11/2023],-236183.7,-188889.2,-216874.9,-262877.7,-242527.9,-212012.3,-241265.9,-243181.4,0.03,0.00,1.02,-4,-2,-4,95,0
[11:46:02.796 29/11/2023],-236202.6,-188908.3,-216886.3,-262895.7,-242544.7,-212054.5,-241281.3,-243182.9,0.03,0.00,1.02,-4,-2,-4,95,0
[11:46:02.800 29/11/2023],-236183.7,-188896.5,-216876.4,-262905.2,-242560.9,-212042.8,-241272.1,-243187.9,0.03,0.00,1.02,-4,-2,-4,95,0
[11:46:02.804 29/11/2023],-236137.7,-188852.6,-216829,-262872,-242533.7,-212017.5,-241233.3,-243162.8,0.03,0.00,1.02,-4,-2,-4,95,0
[11:46:02.808 29/11/2023],-236187.8,-188902.1,-216884,-262856.3,-242553.2,-212081.3,-241263.6,-243158.3,0.03,0.00,1.02,-4,-2,-4,95,0
[11:46:02.812 29/11/2023],-236224.7,-188933.2,-216919.6,-262867.6,-242563.9,-212069.4,-241292.4,-243179.2,0.03,0.00,1.02,-4,-2,-4,95,0
[11:46:02.816 29/11/2023],-236240.7,-188948.9,-216931.7,-262881.4,-242557.8,-212068.7,-241302.2,-243185.3,0.03,0.00,1.02,-4,-2,-4,95,0
[11:46:02.820 29/11/2023],-236216.6,-188926.7,-216910.8,-262890.1,-242556.1,-212072,-241283.8,-243182,0.03,0.00,1.02,-4,-2,-4,95,0
[11:46:02.824 29/11/2023],-236166.2,-188874.2,-216858.9,-262858.6,-242531.5,-212029.4,-241244.1,-243165.8,0.03,0.00,1.02,-4,-2,-4,95,0
[11:46:02.828 29/11/2023],-236183.7,-188889.2,-216874.9,-262877.7,-242527.9,-212012.3,-241265.9,-243181.4,0.03,0.00,1.02,-4,-2,-4,95,0
[11:46:02.832 29/11/2023],-236202.6,-188908.3,-216886.3,-262895.7,-242544.7,-212054.5,-241281.3,-243182.9,0.03,0.00,1.02,-4,-2,-4,95,0
[11:46:02.836 29/11/2023],-236183.7,-188896.5,-216876.4,-262905.2,-242560.9,-212042.8,-241272.1,-243187.9,0.03,0.00,1.02,-4,-2,-4,95,0
[11:46:02.840 29/11/2023],-236260.3,-188972.3,-216882.8,-262900.6,-242529.8,-212025,-241276.3,-243162.8,0.03,0.00,1.02,-4,-2,-4,95,0
[11:46:02.844 29/11/2023],-236163.4,-188873.5,-216847.5,-262873.3,-242547.9,-211988.1,-241247.1,-243168.2,0.05,0.00,1.03,-4,-2,-4,95,0
[11:46:02.848 29/11/2023],-236198.6,-188905.6,-216875.3,-262890.8,-242527.1,-211996,-241269.9,-243173.2,0.05,0.00,1.03,-4,-2,-4,95,0
[11:46:02.852 29/11/2023],-236211.3,-188931.6,-216889.7,-262912.3,-242527,-212005.8,-241287.1,-243188.3,0.05,0.00,1.03,-4,-2,-4,95,0
[11:46:02.856 29/11/2023],-236153.2,-188887.1,-216834.4,-262889.4,-242509.5,-211987.9,-241243.8,-243168.7,0.05,0.00,1.03,-4,-2,-4,95,0
[11:46:02.860 29/11/2023],-236184.5,-188911.8,-216851.3,-262893.7,-242535.2,-211976.7,-241251.8,-243181.5,0.05,0.00,1.03,-4,-2,-4,95,0
[11:46:02.864 29/11/2023],-236225.8,-188941.3,-216880,-262906.8,-242530.7,-212007.5,-241271.7,-243184.9,0.05,0.00,1.03,-4,-2,-4,95,0
[11:46:02.868 29/11/2023],-236244.4,-188956.3,-216896.5,-262922.2,-242532.7,-212057.1,-241284.8,-243182.4,0.05,0.00,1.03,-4,-2,-4,95,0
[11:46:02.872 29/11/2023],-236237,-188953.5,-216879.8,-262908.5,-242532.9,-212035.1,-241270,-243167.7,0.05,0.00,1.03,-4,-2,-4,95,0
[11:46:02.876 29/11/2023],-236260.3,-188972.3,-216882.8,-262900.6,-242529.8,-212025,-241276.3,-243173.1,0.05,0.00,1.03,-4,-2,-4,95,0
[11:46:02.880 29/11/2023],-236314.3,-189016.5,-216915.4,-262923.3,-242538.6,-212008.2,-241307.7,-243192.6,0.03,0.00,1.02,-4,-2,-4,95,0
[11:46:02.884 29/11/2023],-236370.9,-189065.1,-216958.6,-262946.4,-242524.2,-212005.3,-241335,-243209.3,0.03,0.00,1.02,-4,-2,-4,95,0
[11:46:02.888 29/11/2023],-236370.7,-189064.2,-216949.9,-262953.8,-242543.2,-212026.5,-241326.1,-243209.8,0.03,0.00,1.02,-4,-2,-4,95,0
[11:46:02.892 29/11/2023],-236341.2,-189039.8,-216912.5,-262924.8,-242524.2,-211995.2,-241290.5,-243177.4,0.03,0.00,1.02,-4,-2,-4,95,0
[11:46:02.896 29/11/2023],-236382.2,-189076.1,-216939.9,-262936,-242526.8,-211988.9,-241317.9,-243193.1,0.03,0.00,1.02,-4,-2,-4,95,0
[11:46:02.900 29/11/2023],-236415.2,-189114.7,-216971.6,-262973.3,-242551.3,-212021.4,-241348,-243225.5,0.03,0.00,1.02,-4,-2,-4,95,0
[11:46:02.904 29/11/2023],-236298.9,-188989.2,-216894.8,-262948.8,-242535.3,-212018.9,-241293.6,-243187.7,0.03,0.00,1.02,-4,-2,-4,95,0
[11:46:02.908 29/11/2023],-236306.8,-189002.3,-216901.3,-262946.8,-242537.5,-212019.9,-241301.8,-243193.9,0.03,0.00,1.02,-4,-2,-4,95,0
[11:46:02.912 29/11/2023],-236346.1,-189041.1,-216943.6,-262969.7,-242544.6,-212045.5,-241337.9,-243212.9,0.03,0.00,1.02,-4,-2,-4,95,0
[11:46:02.916 29/11/2023],-236384,-189077.9,-216953.2,-262970.6,-242529.1,-211999,-241346,-243220.8,0.03,0.00,1.02,-4,-2,-4,95,0
[11:46:02.920 29/11/2023],-236346.8,-189040.9,-216922.7,-262966.2,-242514.1,-212016.7,-241325.1,-243203.1,0.03,0.00,1.02,-4,-2,-4,95,0
[11:46:02.924 29/11/2023],-236309.7,-189002,-216888.6,-262941.1,-242539.7,-212006.9,-241293.2,-243191.3,0.03,0.00,1.02,-4,-2,-4,95,0
[11:46:02.928 29/11/2023],-236324.8,-189012.5,-216903.1,-262956.2,-242552.9,-212043.3,-241301.4,-243203.8,0.03,0.00,1.02,-4,-2,-4,95,0
[11:46:02.932 29/11/2023],-236367.1,-189054.4,-216954.3,-262982.1,-242550.3,-212063.2,-241334.6,-243222.6,0.03,0.00,1.02,-4,-2,-4,95,0
[11:46:02.936 29/11/2023],-236360.6,-189046.3,-216955.5,-262987.9,-242554.6,-212079.7,-241338.8,-243222,0.03,0.00,1.02,-4,-2,-4,95,0
[11:46:02.940 29/11/2023],-236298.9,-188989.2,-216894.8,-262948.8,-242535.3,-212018.9,-241293.6,-243187.7,0.03,0.00,1.02,-4,-2,-4,95,0
[11:46:02.944 29/11/2023],-236306.8,-189002.3,-216901.3,-262946.8,-242537.5,-212019.9,-241301.8,-243193.9,0.03,0.00,1.02,-4,-2,-4,95,0
[11:46:02.948 29/11/2023],-236346.1,-189041.1,-216943.6,-262969.7,-242544.6,-212045.5,-241337.9,-243212.9,0.03,0.00,1.02,-4,-2,-4,95,0
[11:46:02.952 29/11/2023],-236362.7,-189054.4,-216968.9,-262986.5,-242553.3,-212090.1,-241360.3,-243220.2,0.03,0.00,1.02,-4,-2,-4,95,0
[11:46:02.956 29/11/2023],-236308.7,-189003.6,-216915.5,-262967.1,-242544.4,-212021.7,-241319.1,-243210.4,0.03,0.00,1.02,-4,-2,-4,95,0
[11:46:02.960 29/11/2023],-236286.9,-188977,-216897.2,-262937.5,-242558.7,-212005.7,-241299.3,-243195.9,0.03,0.00,1.02,-4,-2,-4,95,0
[11:46:02.964 29/11/2023],-236302.7,-188991.5,-216920.1,-262947,-242567.8,-212036,-241313.2,-243194.2,0.03,0.00,1.02,-4,-2,-4,95,0
[11:46:02.968 29/11/2023],-236301,-188990.7,-216935.6,-262957.3,-242547,-212048.9,-241314.7,-243188.8,0.03,0.00,1.02,-4,-2,-4,95,0
[11:46:02.972 29/11/2023],-236253.1,-188948.9,-216901.6,-262936.8,-242519.4,-212045.6,-241278.9,-243171.1,0.03,0.00,1.02,-4,-2,-4,95,0
[11:46:02.976 29/11/2023],-236223.3,-188928.7,-216875.9,-262909.2,-242518.5,-211988.5,-241252.7,-243158.2,0.03,0.00,1.02,-4,-2,-4,95,0
[11:46:02.980 29/11/2023],-236243.2,-188945,-216892.5,-262926.1,-242531.9,-211945,-241270.7,-243180.3,0.03,0.00,1.02,-4,-2,-4,95,0
[11:46:02.984 29/11/2023],-236270.5,-188965.6,-216918.6,-262954.6,-242547.9,-212041.2,-241300.8,-243192.3,0.03,0.00,1.02,-4,-2,-4,95,0
[11:46:02.988 29/11/2023],-236242.7,-188940.6,-216894.4,-262949,-242529.5,-212050,-241283.8,-243176.2,0.03,0.00,1.00,-4,-2,-4,95,0
[11:46:02.992 29/11/2023],-236202,-188901.5,-216855.4,-262907.3,-242503.4,-211994.1,-241246.9,-243144.4,0.03,0.00,1.00,-4,-2,-4,95,0
[11:46:02.996 29/11/2023],-236206.7,-188906.4,-216860.3,-262916.1,-242524.2,-211971.2,-241253.5,-243152.8,0.03,0.00,1.00,-4,-2,-4,95,0
[11:46:03.000 29/11/2023],-236251.7,-188948.9,-216910.8,-262940.3,-242558.2,-212023.9,-241297.6,-243178.3,0.03,0.00,1.00,-4,-2,-4,95,0
[11:46:03.004 29/11/2023],-236220.7,-188921,-216883.7,-262934.1,-242521.8,-212030.8,-241279.1,-243175.1,0.03,0.00,1.00,-4,-2,-4,95,0
[11:46:03.008 29/11/2023],-236176.4,-188878.5,-216842.7,-262896.6,-242509.4,-212036.5,-241242.6,-243148.6,0.03,0.00,1.00,-4,-2,-4,95,0
[11:46:03.012 29/11/2023],-236205.6,-188906.7,-216875.8,-262909.3,-242531.7,-212052.1,-241267.4,-243163.4,0.03,0.00,1.00,-4,-2,-4,95,0
[11:46:03.016 29/11/2023],-236240.6,-188939.6,-216915.7,-262924.8,-242543.5,-212048.5,-241295.5,-243173.5,0.03,0.00,1.00,-4,-2,-4,95,0
[11:46:03.020 29/11/2023],-236220.7,-188918.5,-216900.4,-262934.8,-242543.7,-212054.1,-241290.3,-243168.8,0.03,0.00,1.00,-4,-2,-4,95,0
[11:46:03.024 29/11/2023],-236168,-188866.5,-216856.5,-262906.5,-242520.9,-212007.4,-241249.4,-243145,0.03,-0.02,1.02,-4,-2,-4,95,0
[11:46:03.028 29/11/2023],-236183.2,-188876.7,-216869.2,-262906.5,-242500.5,-212002,-241261.8,-243147.5,0.03,-0.02,1.02,-4,-2,-4,95,0
[11:46:03.032 29/11/2023],-236218,-188914.6,-216899.5,-262941.2,-242533.7,-211996.5,-241293.1,-243173.5,0.03,-0.02,1.02,-4,-2,-4,95,0
[11:46:03.036 29/11/2023],-236205.2,-188904,-216889.5,-262952.5,-242556,-212015,-241286,-243175.8,0.03,-0.02,1.02,-4,-2,-4,95,0
[11:46:03.040 29/11/2023],-236161.1,-188865.9,-216850.2,-262924.2,-242526.7,-212031.6,-241249.8,-243156.8,0.03,-0.02,1.02,-4,-2,-4,95,0
[11:46:03.044 29/11/2023],-236169.2,-188879.9,-216860.3,-262915.3,-242518.8,-212003,-241250.1,-243168.3,0.03,-0.02,1.02,-4,-2,-4,95,0
[11:46:03.048 29/11/2023],-236191.2,-188898.2,-216888.8,-262934.5,-242529.4,-212008.9,-241265,-243171.4,0.03,-0.02,1.02,-4,-2,-4,95,0
[11:46:03.052 29/11/2023],-236183,-188887.8,-216882.2,-262938.5,-242530.9,-212082.8,-241264.1,-243166,0.03,-0.02,1.02,-4,-2,-4,95,0
[11:46:03.056 29/11/2023],-236131.1,-188845.6,-216830.9,-262915.5,-242514.1,-212054.7,-241233.5,-243154.8,0.03,-0.02,1.02,-4,-2,-4,95,0
[11:46:03.060 29/11/2023],-236131.5,-188842.5,-216836.6,-262909.3,-242498.1,-212021.4,-241239.7,-243150,0.05,-0.02,1.03,-4,-2,-4,95,0
[11:46:03.064 29/11/2023],-236160.8,-188872.6,-216870.7,-262938.6,-242514.5,-211988.1,-241265,-243173.4,0.05,-0.02,1.03,-4,-2,-4,95,0
[11:46:03.068 29/11/2023],-236174.4,-188888.8,-216880.7,-262953.6,-242548.7,-211995.7,-241274.4,-243181.2,0.05,-0.02,1.03,-4,-2,-4,95,0
[11:46:03.072 29/11/2023],-236128.4,-188841.9,-216832.8,-262922.3,-242544.3,-212013.4,-241239.3,-243156.6,0.05,-0.02,1.03,-4,-2,-4,95,0
[11:46:03.076 29/11/2023],-236110.8,-188825.7,-216816.9,-262897.7,-242530,-212018.5,-241223.5,-243141.9,0.05,-0.02,1.03,-4,-2,-4,95,0
[11:46:03.080 29/11/2023],-236126,-188837.3,-216835.1,-262903.1,-242513.8,-212010.8,-241233.9,-243134.2,0.05,-0.02,1.03,-4,-2,-4,95,0
[11:46:03.084 29/11/2023],-236145.8,-188851.5,-216862.1,-262925.3,-242530.4,-212007.3,-241252.3,-243144.9,0.05,-0.02,1.03,-4,-2,-4,95,0
[11:46:03.088 29/11/2023],-236112.7,-188823.4,-216842.8,-262920.1,-242514,-211948.5,-241226.3,-243148.9,0.05,-0.02,1.03,-4,-2,-4,95,0
[11:46:03.092 29/11/2023],-236099,-188808.9,-216830.3,-262886.1,-242505.6,-211948.8,-241212.2,-243132.9,0.05,-0.02,1.03,-4,-2,-4,95,0
[11:46:03.096 29/11/2023],-236161.2,-188874.9,-216849.8,-262901.9,-242509.3,-211989,-241240.3,-243145.1,0.03,0.00,1.03,-4,-2,-4,95,0
[11:46:03.100 29/11/2023],-236159.2,-188875.3,-216891.8,-262932.2,-242521.5,-212058.1,-241257,-243168.2,0.03,0.00,1.03,-4,-2,-4,95,0
[11:46:03.104 29/11/2023],-236128.6,-188849.6,-216869.3,-262902.9,-242514.5,-211991.1,-241232.1,-243162.5,0.03,0.00,1.03,-4,-2,-4,95,0
[11:46:03.108 29/11/2023],-236127.3,-188846.7,-216863,-262902.4,-242518.5,-211944.4,-241232.8,-243167.4,0.03,0.00,1.03,-4,-2,-4,95,0
[11:46:03.112 29/11/2023],-236140,-188854.1,-216860.3,-262899.5,-242512.7,-212060.9,-241240,-243144.3,0.03,0.00,1.03,-4,-2,-4,95,0
[11:46:03.116 29/11/2023],-236143.8,-188865.8,-216871.5,-262925.1,-242545.4,-212058.8,-241251.7,-243160,0.03,0.00,1.03,-4,-2,-4,95,0
[11:46:03.120 29/11/2023],-236107,-188831.3,-216833.9,-262908.3,-242538.6,-212002.1,-241220.9,-243151.4,0.03,0.00,1.03,-4,-2,-4,95,0
[11:46:03.124 29/11/2023],-236099.9,-188813.4,-216814.7,-262884,-242539,-211972.2,-241212,-243139.6,0.03,0.00,1.03,-4,-2,-4,95,0
[11:46:03.128 29/11/2023],-236143.4,-188850.3,-216846.1,-262901.5,-242537.3,-212048,-241247.3,-243150.9,0.03,0.00,1.03,-4,-2,-4,95,0
[11:46:03.132 29/11/2023],-236161.2,-188874.9,-216891.5,-262916.4,-242525.6,-212049.5,-241258.3,-243159.1,0.03,0.00,1.00,-4,-2,-4,95,0
[11:46:03.136 29/11/2023],-236159.2,-188875.3,-216891.8,-262932.2,-242521.5,-212058.1,-241257,-243168.2,0.03,0.00,1.00,-4,-2,-4,95,0
[11:46:03.140 29/11/2023],-236128.6,-188849.6,-216869.3,-262902.9,-242514.5,-211991.1,-241232.1,-243162.5,0.03,0.00,1.00,-4,-2,-4,95,0
[11:46:03.144 29/11/2023],-236127.3,-188846.7,-216863,-262902.4,-242518.5,-211944.4,-241232.8,-243167.4,0.03,0.00,1.00,-4,-2,-4,95,0
[11:46:03.148 29/11/2023],-236140,-188854.1,-216860.3,-262899.5,-242512.7,-212060.9,-241240,-243144.3,0.03,0.00,1.00,-4,-2,-4,95,0
[11:46:03.152 29/11/2023],-236143.8,-188865.8,-216871.5,-262925.1,-242545.4,-212058.8,-241251.7,-243160,0.03,0.00,1.00,-4,-2,-4,95,0
[11:46:03.156 29/11/2023],-236107,-188831.3,-216833.9,-262908.3,-242538.6,-212002.1,-241220.9,-243151.4,0.03,0.00,1.00,-4,-2,-4,95,0
[11:46:03.160 29/11/2023],-236099.9,-188813.4,-216814.7,-262884,-242539,-211972.2,-241212,-243139.6,0.03,0.00,1.00,-4,-2,-4,95,0
[11:46:03.164 29/11/2023],-236143.4,-188850.3,-216846.1,-262901.5,-242537.3,-212048,-241247.3,-243150.9,0.03,0.00,1.00,-4,-2,-4,95,0
[11:46:03.168 29/11/2023],-236186.5,-188889,-216884,-262918.3,-242550.7,-212088.1,-241278.8,-243166.9,0.03,-0.02,1.02,-4,-2,-4,95,0
[11:46:03.172 29/11/2023],-236149.1,-188855.4,-216852.9,-262899.2,-242535.1,-212032.5,-241244.7,-243154.2,0.03,-0.02,1.02,-4,-2,-4,95,0
[11:46:03.176 29/11/2023],-236121.4,-188832.2,-216831.2,-262888.6,-242524.1,-211942.7,-241223.6,-243154,0.03,-0.02,1.02,-4,-2,-4,95,0
[11:46:03.180 29/11/2023],-236154.9,-188861.9,-216856.4,-262911.9,-242551.3,-211979.7,-241251.6,-243162.2,0.03,-0.02,1.02,-4,-2,-4,95,0
[11:46:03.184 29/11/2023],-236177.6,-188871.4,-216873.7,-262920.1,-242579.4,-212082.9,-241273.7,-243161.1,0.03,-0.02,1.02,-4,-2,-4,95,0
[11:46:03.188 29/11/2023],-236143.8,-188841.6,-216847.9,-262897.6,-242574.8,-212053.1,-241250.4,-243149.5,0.03,-0.02,1.02,-4,-2,-4,95,0
[11:46:03.192 29/11/2023],-236106,-188814.5,-216808.5,-262864.6,-242546.5,-211999.2,-241213.8,-243130.3,0.03,-0.02,1.02,-4,-2,-4,95,0
[11:46:03.196 29/11/2023],-236125.9,-188835.9,-216820.5,-262870.6,-242536.2,-211987.6,-241225.6,-243139.1,0.03,-0.02,1.02,-4,-2,-4,95,0
[11:46:03.200 29/11/2023],-236143.1,-188848.9,-216840.6,-262879.6,-242532.3,-212010,-241237.9,-243139.3,0.03,-0.02,1.02,-4,-2,-4,95,0
[11:46:03.204 29/11/2023],-236114.5,-188826.6,-216816.6,-262876.7,-242531,-212011,-241216,-243138,0.05,0.00,1.00,-4,-2,-4,95,0
[11:46:03.208 29/11/2023],-236083.2,-188807.9,-216780.8,-262846,-242530.6,-211960.5,-241186.6,-243120,0.05,0.00,1.00,-4,-2,-4,95,0
[11:46:03.212 29/11/2023],-236111.8,-188838.8,-216801.1,-262867.9,-242554.1,-211973.8,-241211.6,-243131.4,0.05,0.00,1.00,-4,-2,-4,95,0
[11:46:03.216 29/11/2023],-236148.1,-188872.8,-216841.6,-262893.6,-242560.9,-211965.4,-241241.1,-243155.6,0.05,0.00,1.00,-4,-2,-4,95,0
[11:46:03.220 29/11/2023],-236138,-188866.1,-216847.5,-262908.2,-242572.3,-211975.3,-241241.2,-243160.7,0.05,0.00,1.00,-4,-2,-4,95,0
[11:46:03.224 29/11/2023],-236121.1,-188844.4,-216834.7,-262884.8,-242564.7,-212058.1,-241228.4,-243150.8,0.05,0.00,1.00,-4,-2,-4,95,0
[11:46:03.228 29/11/2023],-236149.8,-188868,-216851.5,-262890.4,-242571.9,-212077.2,-241245,-243161.4,0.05,0.00,1.00,-4,-2,-4,95,0
[11:46:03.232 29/11/2023],-236177.2,-188894,-216867.5,-262905.6,-242591.8,-212071.6,-241263.6,-243174.3,0.05,0.00,1.00,-4,-2,-4,95,0
[11:46:03.236 29/11/2023],-236160.5,-188885.7,-216856.3,-262907.3,-242612.3,-212039.1,-241257.7,-243168.8,0.05,0.00,1.00,-4,-2,-4,95,0
[11:46:03.240 29/11/2023],-236099,-188828.8,-216797.9,-262876.4,-242577.4,-211957.2,-241209.3,-243134.4,0.03,0.00,1.02,-4,-2,-4,95,0
[11:46:03.244 29/11/2023],-236097.7,-188823.3,-216796,-262876.8,-242563.9,-211951.7,-241204.6,-243134,0.03,0.00,1.02,-4,-2,-4,95,0
[11:46:03.248 29/11/2023],-236162.3,-188873.7,-216858.5,-262905.3,-242580.6,-212059.1,-241256.8,-243158.6,0.03,0.00,1.02,-4,-2,-4,95,0
[11:46:03.252 29/11/2023],-236190,-188902.3,-216883.2,-262934.1,-242605.9,-212083.1,-241281.3,-243182.2,0.03,0.00,1.02,-4,-2,-4,95,0
[11:46:03.256 29/11/2023],-236136.2,-188855.5,-216833.8,-262914.1,-242595.2,-212016.2,-241235.2,-243167.6,0.03,0.00,1.02,-4,-2,-4,95,0
[11:46:03.260 29/11/2023],-236119.2,-188834.9,-216817.5,-262895,-242577.6,-211992.4,-241221.5,-243147.9,0.03,0.00,1.02,-4,-2,-4,95,0
[11:46:03.264 29/11/2023],-236158,-188866.7,-216856.2,-262925.2,-242578.6,-212047.1,-241254.6,-243155.5,0.03,0.00,1.02,-4,-2,-4,95,0
[11:46:03.268 29/11/2023],-236167,-188878.6,-216871.1,-262951.8,-242607.4,-212027.8,-241261.1,-243166.3,0.03,0.00,1.02,-4,-2,-4,95,0
[11:46:03.272 29/11/2023],-236142.1,-188859.1,-216851.9,-262943.3,-242603.2,-211991.5,-241240,-243172.4,0.03,0.00,1.02,-4,-2,-4,95,0
[11:46:03.276 29/11/2023],-236125.4,-188834.1,-216833.3,-262905.6,-242571.5,-212033.9,-241221.4,-243145,0.05,0.00,1.02,-4,-2,-4,95,0
[11:46:03.280 29/11/2023],-236145.5,-188844.7,-216851.1,-262912.2,-242584.5,-212071.1,-241235.5,-243138.1,0.05,0.00,1.02,-4,-2,-4,95,0
[11:46:03.284 29/11/2023],-236190.3,-188889,-216896.5,-262946.5,-242595,-212093.1,-241268.7,-243170.1,0.05,0.00,1.02,-4,-2,-4,95,0
[11:46:03.288 29/11/2023],-236185.3,-188884.9,-216889.8,-262942.8,-242593.8,-212059,-241263.2,-243169.4,0.05,0.00,1.02,-4,-2,-4,95,0
[11:46:03.292 29/11/2023],-236160.6,-188859.5,-216864.1,-262911.6,-242596.8,-212053.7,-241244.3,-243153.2,0.05,0.00,1.02,-4,-2,-4,95,0
[11:46:03.296 29/11/2023],-236170.2,-188871.3,-216869.2,-262926.9,-242609.9,-212053.7,-241256.4,-243165.7,0.05,0.00,1.02,-4,-2,-4,95,0
[11:46:03.300 29/11/2023],-236206.3,-188912.8,-216902,-262955.4,-242614.1,-212078.1,-241287.6,-243180.1,0.05,0.00,1.02,-4,-2,-4,95,0
[11:46:03.304 29/11/2023],-236124.7,-188847.9,-216803.2,-262882.9,-242578.6,-212045,-241224.3,-243141.3,0.05,0.00,1.02,-4,-2,-4,95,0
[11:46:03.308 29/11/2023],-236146.7,-188867.5,-216821.3,-262882.1,-242592.7,-212052.6,-241238.1,-243143.9,0.05,0.00,1.02,-4,-2,-4,95,0
[11:46:03.312 29/11/2023],-236153.4,-188876.6,-216838.8,-262928,-242577.6,-212028,-241238.5,-243163.9,0.03,0.00,1.02,-4,-2,-4,95,0
[11:46:03.316 29/11/2023],-236193.1,-188915,-216882,-262951.6,-242610.4,-212082.1,-241271.8,-243182,0.03,0.00,1.02,-4,-2,-4,95,0
[11:46:03.320 29/11/2023],-236190,-188918.5,-216890.9,-262942.7,-242602.9,-212054.1,-241270.4,-243177.6,0.03,0.00,1.02,-4,-2,-4,95,0
[11:46:03.324 29/11/2023],-236148.4,-188884.8,-216847.6,-262904.9,-242600.9,-211994.8,-241235.6,-243156.9,0.03,0.00,1.02,-4,-2,-4,95,0
[11:46:03.328 29/11/2023],-236151.1,-188884.5,-216835.8,-262901.3,-242614.7,-212040.4,-241239,-243153.6,0.03,0.00,1.02,-4,-2,-4,95,0
[11:46:03.332 29/11/2023],-236179.4,-188902.8,-216855.4,-262914.7,-242587,-212051.3,-241264.1,-243163.3,0.03,0.00,1.02,-4,-2,-4,95,0
[11:46:03.336 29/11/2023],-236175.6,-188900.8,-216850.1,-262924.1,-242594.2,-212047.6,-241262.4,-243176.6,0.03,0.00,1.02,-4,-2,-4,95,0
[11:46:03.340 29/11/2023],-236124.7,-188847.9,-216803.2,-262882.9,-242578.6,-212045,-241224.3,-243141.3,0.03,0.00,1.02,-4,-2,-4,95,0
[11:46:03.344 29/11/2023],-236146.7,-188867.5,-216821.3,-262882.1,-242592.7,-212052.6,-241238.1,-243143.9,0.03,0.00,1.02,-4,-2,-4,95,0
[11:46:03.348 29/11/2023],-236189.4,-188911,-216864.3,-262919.5,-242631.6,-212090,-241275.5,-243170.8,0.03,-0.02,1.02,-4,-2,-4,95,0
[11:46:03.352 29/11/2023],-236209.9,-188933.7,-216894.3,-262939,-242641.1,-212121.2,-241294.1,-243188,0.03,-0.02,1.02,-4,-2,-4,95,0
[11:46:03.356 29/11/2023],-236168.5,-188898.1,-216859.1,-262916.7,-242604,-212052.1,-241259.3,-243177.1,0.03,-0.02,1.02,-4,-2,-4,95,0
[11:46:03.360 29/11/2023],-236179.1,-188911,-216869.5,-262909.1,-242585.6,-212048.4,-241257.7,-243181,0.03,-0.02,1.02,-4,-2,-4,95,0
[11:46:03.364 29/11/2023],-236194.9,-188922.8,-216885.2,-262931.5,-242616.6,-212028.3,-241266,-243186.3,0.03,-0.02,1.02,-4,-2,-4,95,0
[11:46:03.368 29/11/2023],-236185.6,-188897.8,-216874.9,-262916.2,-242592,-212105.4,-241265.4,-243160.2,0.03,-0.02,1.02,-4,-2,-4,95,0
[11:46:03.372 29/11/2023],-236131.3,-188850.6,-216817.4,-262878,-242568.4,-212060.9,-241221.2,-243137,0.03,-0.02,1.02,-4,-2,-4,95,0
[11:46:03.376 29/11/2023],-236132.3,-188856.6,-216814.2,-262885.9,-242554.2,-212033,-241224.8,-243144,0.03,-0.02,1.02,-4,-2,-4,95,0
[11:46:03.380 29/11/2023],-236170.8,-188894.6,-216850.2,-262917.3,-242589.2,-212051.6,-241257.8,-243164.1,0.03,-0.02,1.02,-4,-2,-4,95,0
[11:46:03.384 29/11/2023],-236217.1,-188933.4,-216893.1,-262912.7,-242571.3,-212096,-241272.1,-243155.4,0.05,0.00,1.02,-4,-2,-4,95,0
[11:46:03.388 29/11/2023],-236196.1,-188911.4,-216875.7,-262906.8,-242591.6,-212095,-241255.7,-243159.9,0.05,0.00,1.02,-4,-2,-4,95,0
[11:46:03.392 29/11/2023],-236148.8,-188866.6,-216822.6,-262879.1,-242582,-212034,-241220,-243142.5,0.05,0.00,1.02,-4,-2,-4,95,0
[11:46:03.396 29/11/2023],-236163.4,-188880.8,-216829.8,-262895.1,-242592.2,-212013.2,-241234.5,-243152.9,0.05,0.00,1.02,-4,-2,-4,95,0
[11:46:03.400 29/11/2023],-236197.1,-188912.3,-216871.6,-262919,-242593.8,-212028.7,-241265.1,-243167.3,0.05,0.00,1.02,-4,-2,-4,95,0
[11:46:03.404 29/11/2023],-236185.6,-188897.8,-216874.9,-262916.2,-242592,-212105.4,-241265.4,-243160.2,0.05,0.00,1.02,-4,-2,-4,95,0
[11:46:03.408 29/11/2023],-236131.3,-188850.6,-216817.4,-262878,-242568.4,-212060.9,-241221.2,-243137,0.05,0.00,1.02,-4,-2,-4,95,0
[11:46:03.412 29/11/2023],-236132.3,-188856.6,-216814.2,-262885.9,-242554.2,-212033,-241224.8,-243144,0.05,0.00,1.02,-4,-2,-4,95,0
[11:46:03.416 29/11/2023],-236190.3,-188902,-216911,-262959.4,-242618.8,-212099.3,-241281.6,-243179.5,0.05,0.00,1.02,-4,-2,-4,95,0
[11:46:03.420 29/11/2023],-236184,-188912.2,-216866.3,-262930.3,-242619.1,-212066.4,-241270.3,-243175.2,0.03,0.00,1.00,-4,-2,-4,95,0
[11:46:03.424 29/11/2023],-236149.4,-188878.1,-216836,-262894.1,-242608.1,-212046.2,-241240.1,-243155,0.03,0.00,1.00,-4,-2,-4,95,0
[11:46:03.428 29/11/2023],-236156.2,-188873.3,-216847.6,-262887.6,-242585.1,-212040.1,-241241.6,-243144.4,0.03,0.00,1.00,-4,-2,-4,95,0
[11:46:03.432 29/11/2023],-236202.7,-188908.1,-216923.5,-262959.9,-242605.3,-212108.7,-241286.4,-243188.5,0.03,0.00,1.00,-4,-2,-4,95,0
[11:46:03.436 29/11/2023],-236177.8,-188891.3,-216899.8,-262956.2,-242588.9,-212074.1,-241271.3,-243191.3,0.03,0.00,1.00,-4,-2,-4,95,0
[11:46:03.440 29/11/2023],-236171.7,-188887.7,-216889.6,-262940.4,-242600.9,-212043.2,-241266.8,-243180.4,0.03,0.00,1.00,-4,-2,-4,95,0
[11:46:03.444 29/11/2023],-236173,-188893,-216888.2,-262960,-242617.3,-212043.4,-241265.3,-243181.2,0.03,0.00,1.00,-4,-2,-4,95,0
[11:46:03.448 29/11/2023],-236191.7,-188914.3,-216905.9,-262977,-242644.8,-212046.3,-241282.1,-243191.8,0.03,0.00,1.00,-4,-2,-4,95,0
[11:46:03.452 29/11/2023],-236181.3,-188903,-216896.5,-262967.3,-242628.8,-212065.3,-241278.7,-243193.6,0.03,0.00,1.00,-4,-2,-4,95,0
[11:46:03.456 29/11/2023],-236118.1,-188832.8,-216845.9,-262914.8,-242592.8,-212002.4,-241220.7,-243130.2,0.05,0.00,1.02,-4,-2,-4,95,0
[11:46:03.460 29/11/2023],-236135.1,-188859.5,-216852.1,-262770.4,-242508.6,-212013.4,-241232.6,-243143.4,0.05,0.00,1.02,-4,-2,-4,95,0
[11:46:03.464 29/11/2023],-236106.7,-188831.3,-216825.1,-262754.8,-242508.9,-211952.8,-241211.3,-243092.1,0.05,0.00,1.02,-4,-2,-4,95,0
[11:46:03.468 29/11/2023],-236121.6,-188846.6,-216839.4,-262759.8,-242538.3,-212000.6,-241223.2,-243097.8,0.05,0.00,1.02,-4,-2,-4,95,0
[11:46:03.472 29/11/2023],-236148.7,-188865.5,-216865,-262782.3,-242540.5,-212026.9,-241245.1,-243107.5,0.05,0.00,1.02,-4,-2,-4,95,0
[11:46:03.476 29/11/2023],-236158.4,-188873.4,-216877,-262803.3,-242559.5,-212042.5,-241258.2,-243123.5,0.05,0.00,1.02,-4,-2,-4,95,0
[11:46:03.480 29/11/2023],-236108.5,-188827.1,-216832,-262781.8,-242535.1,-211970.9,-241221.1,-243105,0.05,0.00,1.02,-4,-2,-4,95,0
[11:46:03.484 29/11/2023],-236124.9,-188838.8,-216842.8,-262769.2,-242528.6,-211930.2,-241228.3,-243110.1,0.05,0.00,1.02,-4,-2,-4,95,0
[11:46:03.488 29/11/2023],-236160.2,-188861.2,-216870.3,-262774.6,-242494.3,-211971.7,-241251.3,-243113.1,0.05,0.00,1.02,-4,-2,-4,95,0
[11:46:03.492 29/11/2023],-236116.6,-188832.6,-216831.5,-262743.3,-242484.1,-211965.8,-241217.1,-243069.7,0.05,0.00,1.00,-4,-2,-4,95,0
[11:46:03.496 29/11/2023],-236135.1,-188859.5,-216852.1,-262770.4,-242508.6,-211996.4,-241232.5,-243097.2,0.05,0.00,1.00,-4,-2,-4,95,0
[11:46:03.500 29/11/2023],-236106.7,-188831.3,-216825.1,-262754.8,-242508.9,-211952.8,-241211.3,-243092.1,0.05,0.00,1.00,-4,-2,-4,95,0
[11:46:03.504 29/11/2023],-236141.8,-188832.5,-216854.4,-262762.1,-242542.9,-211995.3,-241243.3,-243083.8,0.05,0.00,1.02,-4,-2,-4,95,0
[11:46:03.508 29/11/2023],-236180.6,-188870.3,-216898.3,-262790.2,-242558.6,-212024.4,-241274.6,-243105.5,0.05,0.00,1.02,-4,-2,-4,95,0
[11:46:03.512 29/11/2023],-236165.9,-188867.6,-216889.3,-262800.8,-242569.2,-211967.6,-241270.6,-243123.8,0.05,0.00,1.02,-4,-2,-4,95,0
[11:46:03.516 29/11/2023],-236100,-188811.4,-216822.5,-262759.8,-242509.2,-211916.9,-241216.5,-243087.6,0.05,0.00,1.02,-4,-2,-4,95,0
[11:46:03.520 29/11/2023],-236134.1,-188845.5,-216854.4,-262781.5,-242520,-212016.6,-241247.8,-243110.1,0.05,0.00,1.02,-4,-2,-4,95,0
[11:46:03.524 29/11/2023],-236170.2,-188881.8,-216897.5,-262807.6,-242540.5,-212034.1,-241279.4,-243115.2,0.05,0.00,1.02,-4,-2,-4,95,0
[11:46:03.528 29/11/2023],-236187.2,-188882.3,-216900.8,-262795.7,-242540.3,-212036.7,-241274.9,-243122.5,0.05,0.00,1.02,-4,-2,-4,95,0
[11:46:03.532 29/11/2023],-236156.8,-188853.8,-216873.3,-262783.9,-242547,-212008.3,-241252.8,-243114.1,0.05,0.00,1.02,-4,-2,-4,95,0
[11:46:03.536 29/11/2023],-236121.9,-188818.2,-216833.9,-262748.6,-242528,-211959.8,-241228.2,-243090.6,0.05,0.00,1.02,-4,-2,-4,95,0
[11:46:03.540 29/11/2023],-236141.8,-188832.5,-216854.4,-262762.1,-242542.9,-211995.3,-241243.3,-243083.8,0.05,0.00,1.02,-4,-2,-4,95,0
[11:46:03.544 29/11/2023],-236180.6,-188870.3,-216898.3,-262790.2,-242558.6,-212024.4,-241274.6,-243105.5,0.05,0.00,1.02,-4,-2,-4,95,0
[11:46:03.548 29/11/2023],-236165.9,-188867.6,-216889.3,-262800.8,-242569.2,-211967.6,-241270.6,-243123.8,0.05,0.00,1.02,-4,-2,-4,95,0
[11:46:03.552 29/11/2023],-236100,-188811.4,-216822.5,-262759.8,-242509.2,-211916.9,-241216.5,-243087.6,0.05,0.00,1.02,-4,-2,-4,95,0
[11:46:03.556 29/11/2023],-236134.1,-188845.5,-216854.4,-262781.5,-242520,-212016.6,-241247.8,-243110.1,0.05,0.00,1.02,-4,-2,-4,95,0
[11:46:03.560 29/11/2023],-236170.2,-188881.8,-216897.5,-262807.6,-242540.5,-212034.1,-241279.4,-243115.2,0.05,0.00,1.02,-4,-2,-4,95,0
