Time and date,Fp1,Fp2,F3,F4,T7,T8,F7,F8,AccX,AccY,AccZ,GyroX,GyroY,GyroZ,Battery,Event
[15:14:00.000 29/11/2023],-139410.4,-66969,-101759.3,-156071.3,-80705.84,-106637.3,-136077.2,-102016.6,0.05,0.00,1.00,-4,-2,-4,87,0
[15:14:00.004 29/11/2023],-139398.7,-66942.98,-101738.4,-156057.6,-80678.04,-106631.6,-136080.5,-101994,0.05,0.00,1.00,-4,-2,-4,87,0
[15:14:00.008 29/11/2023],-139405.4,-66988.35,-101739,-156068.8,-80728.69,-106635.5,-136096.5,-102000.9,0.05,0.00,1.00,-4,-2,-4,87,0
[15:14:00.012 29/11/2023],-139394,-67012.49,-101750.9,-156076,-80727.7,-106627.7,-136088.2,-101991,0.05,0.00,1.00,-4,-2,-4,87,0
[15:14:00.016 29/11/2023],-139388.3,-66998.91,-101750,-156065.5,-80720.28,-106616.8,-136081.6,-102002.1,0.05,0.00,1.00,-4,-2,-4,87,0
[15:14:00.020 29/11/2023],-139396.9,-66980.27,-101754.8,-156076.6,-80723.32,-106618.3,-136078.6,-101998.5,0.05,0.00,1.00,-4,-2,-4,87,0
[15:14:00.024 29/11/2023],-139402.5,-66978.16,-101752.6,-156096.8,-80703.02,-106615.3,-136090.7,-101995.6,0.05,0.00,1.00,-4,-2,-4,87,0
[15:14:00.028 29/11/2023],-139381.9,-66988,-101746.5,-156087.6,-80709.51,-106603.4,-136072.7,-102015.2,0.05,0.00,1.00,-4,-2,-4,87,0
[15:14:00.032 29/11/2023],-139373.1,-66993.72,-101745,-156044.9,-80724.4,-106602.4,-136070.4,-101981,0.05,0.00,1.00,-4,-2,-4,87,0
[15:14:00.036 29/11/2023],-139380.2,-67030.06,-101762.7,-156063.4,-80702.53,-106629.5,-136090.6,-101979.5,0.03,0.00,1.00,-4,-2,-4,87,0
[15:14:00.040 29/11/2023],-139380.8,-67035.38,-101742.6,-156085.9,-80703.02,-106633.1,-136081.2,-101981,0.03,0.00,1.02,-4,-2,-4,87,0
[15:14:00.044 29/11/2023],-139362.5,-67030.15,-101740.3,-156081,-80696.77,-106624.3,-136073.1,-101962,0.03,0.00,1.02,-4,-2,-4,87,0
[15:14:00.048 29/11/2023],-139342.6,-67036.95,-101729.1,-156062.4,-80688.54,-106633.9,-136075.2,-101961.5,0.03,0.00,1.02,-4,-2,-4,87,0
[15:14:00.052 29/11/2023],-139346.7,-67022.87,-101739.7,-156063.6,-80711.66,-106653.8,-136068.8,-101946.4,0.03,0.00,1.02,-4,-2,-4,87,0
[15:14:00.056 29/11/2023],-139351.3,-67057.73,-101748.8,-156101.4,-80727.7,-106648.3,-136074.9,-101945.7,0.03,0.00,1.02,-4,-2,-4,87,0
[15:14:00.060 29/11/2023],-139359.5,-67087.69,-101773.7,-156092.8,-80710.58,-106641.4,-136069.2,-101961.8,0.03,0.00,1.02,-4,-2,-4,87,0
[15:14:00.064 29/11/2023],-139322.4,-67047.41,-101727.9,-156052.9,-80689.17,-106613.8,-136050.8,-101941.3,0.03,0.00,1.02,-4,-2,-4,87,0
[15:14:00.068 29/11/2023],-139316.9,-67043.12,-101713.1,-156047.5,-80695.88,-106608.5,-136056.4,-101942.5,0.03,0.00,1.02,-4,-2,-4,87,0
[15:14:00.072 29/11/2023],-139380.2,-67030.06,-101762.7,-156063.4,-80702.53,-106629.5,-136090.6,-101979.5,0.03,0.00,1.02,-4,-2,-4,87,0
[15:14:00.076 29/11/2023],-139380.8,-67035.38,-101742.6,-156085.9,-80703.02,-106633.1,-136081.2,-101981,0.03,0.00,1.02,-4,-2,-4,87,0
[15:14:00.080 29/11/2023],-139362.5,-67030.15,-101740.3,-156081,-80696.77,-106624.3,-136073.1,-101962,0.03,0.00,1.02,-4,-2,-4,87,0
[15:14:00.084 29/11/2023],-139342.6,-67036.95,-101729.1,-156062.4,-80688.54,-106633.9,-136075.2,-101961.5,0.03,0.00,1.02,-4,-2,-4,87,0
[15:14:00.088 29/11/2023],-139346.7,-67022.87,-101739.7,-156063.6,-80711.66,-106653.8,-136068.8,-101946.4,0.03,0.00,1.02,-4,-2,-4,87,0
[15:14:00.092 29/11/2023],-139351.3,-67057.73,-101748.8,-156101.4,-80727.7,-106648.3,-136074.9,-101945.7,0.03,0.00,1.02,-4,-2,-4,87,0
[15:14:00.096 29/11/2023],-139359.5,-67087.69,-101773.7,-156092.8,-80710.58,-106641.4,-136069.2,-101961.8,0.03,0.00,1.02,-4,-2,-4,87,0
[15:14:00.100 29/11/2023],-139322.4,-67047.41,-101727.9,-156052.9,-80689.17,-106613.8,-136050.8,-101941.3,0.03,0.00,1.02,-4,-2,-4,87,0
[15:14:00.104 29/11/2023],-139316.9,-67043.12,-101713.1,-156047.5,-80695.88,-106608.5,-136056.4,-101942.5,0.03,0.00,1.02,-4,-2,-4,87,0
[15:14:00.108 29/11/2023],-139340.4,-67070.07,-101738.7,-156079.4,-80702.18,-106631.2,-136070.5,-101956.3,0.03,0.00,1.02,-4,-2,-4,87,0
[15:14:00.112 29/11/2023],-139338.2,-67070.16,-101755,-156095.1,-80720.38,-106644,-136066.9,-101959.7,0.03,0.00,1.02,-4,-2,-4,87,0
[15:14:00.116 29/11/2023],-139332,-67061.71,-101761.1,-156084.5,-80710.23,-106647,-136058.8,-101958.4,0.03,0.00,1.02,-4,-2,-4,87,0
[15:14:00.120 29/11/2023],-139321.2,-67068.15,-101751.1,-156074.6,-80692.08,-106648.5,-136057.7,-101955.1,0.03,0.00,1.02,-4,-2,-4,87,0
[15:14:00.124 29/11/2023],-139314.9,-67084.47,-101764.3,-156065,-80710.41,-106642.5,-136061.2,-101949.2,0.03,0.00,1.02,-4,-2,-4,87,0
[15:14:00.128 29/11/2023],-139312.3,-67078.92,-101774,-156075.2,-80685.05,-106658.4,-136052.7,-101966.8,0.03,0.00,1.02,-4,-2,-4,87,0
[15:14:00.132 29/11/2023],-139311.2,-67100.88,-101786.7,-156113.8,-80707.36,-106655.6,-136049.5,-101971.4,0.03,0.00,1.02,-4,-2,-4,87,0
[15:14:00.136 29/11/2023],-139304.2,-67101.77,-101788.4,-156088.9,-80721.18,-106670.3,-136052.7,-101976.1,0.03,0.00,1.02,-4,-2,-4,87,0
[15:14:00.140 29/11/2023],-139302.1,-67105.61,-101780.2,-156082.3,-80701.69,-106670.5,-136052.1,-101986.2,0.03,0.00,1.02,-4,-2,-4,87,0
[15:14:00.144 29/11/2023],-139321.9,-67086.61,-101780,-156101.2,-80706.52,-106676.6,-136061,-101967.5,0.03,0.00,1.02,-4,-2,-4,87,0
[15:14:00.148 29/11/2023],-139296.4,-67061.18,-101770.6,-156071.1,-80689.39,-106650.3,-136035.6,-101940.8,0.03,0.00,1.02,-4,-2,-4,87,0
[15:14:00.152 29/11/2023],-139294.1,-67043.2,-101774.1,-156070.2,-80712.02,-106645.9,-136021.8,-101949.5,0.03,0.00,1.02,-4,-2,-4,87,0
[15:14:00.156 29/11/2023],-139310.8,-67073.42,-101771,-156072.1,-80720.95,-106662.4,-136050.4,-101968.5,0.03,0.00,1.02,-4,-2,-4,87,0
[15:14:00.160 29/11/2023],-139314.9,-67084.47,-101764.3,-156065,-80714.88,-106663.2,-136056,-101954.5,0.03,0.00,1.02,-4,-2,-4,87,0
[15:14:00.164 29/11/2023],-139312.3,-67078.92,-101774,-156075.2,-80685.05,-106658.4,-136052.7,-101966.8,0.03,0.00,1.02,-4,-2,-4,87,0
[15:14:00.168 29/11/2023],-139311.2,-67100.88,-101786.7,-156113.8,-80707.36,-106655.6,-136049.5,-101971.4,0.03,0.00,1.02,-4,-2,-4,87,0
[15:14:00.172 29/11/2023],-139247.9,-67111.38,-101778.8,-156073.5,-80702.76,-106658.6,-136032.1,-101949,0.03,0.00,1.02,-4,-2,-4,87,0
[15:14:00.176 29/11/2023],-139240.7,-67114.1,-101779.9,-156067.1,-80661.72,-106653.5,-136031,-101960.8,0.03,0.00,1.02,-4,-2,-4,87,0
[15:14:00.180 29/11/2023],-139284.7,-67104.36,-101783.9,-156069,-80694.8,-106666.4,-136048.9,-101976.9,0.05,-0.02,1.02,-4,-2,-4,87,0
[15:14:00.184 29/11/2023],-139261.3,-67083.17,-101781.3,-156057.4,-80657.02,-106663.2,-136026.4,-101960.3,0.05,-0.02,1.02,-4,-2,-4,87,0
[15:14:00.188 29/11/2023],-139276,-67105.3,-101782.6,-156078.9,-80705.09,-106676.8,-136043.3,-101971.5,0.05,-0.02,1.02,-4,-2,-4,87,0
[15:14:00.192 29/11/2023],-139281.1,-67118.17,-101789.4,-156099.8,-80725.65,-106678.8,-136040.6,-101972.9,0.05,-0.02,1.02,-4,-2,-4,87,0
[15:14:00.196 29/11/2023],-139259.6,-67107.04,-101773.4,-156085.3,-80722.16,-106652.2,-136032.8,-101965.4,0.05,-0.02,1.02,-4,-2,-4,87,0
[15:14:00.200 29/11/2023],-139231.1,-67096.9,-101750.2,-156049.5,-80683.63,-106644.1,-136026.7,-101955.4,0.05,-0.02,1.02,-4,-2,-4,87,0
[15:14:00.204 29/11/2023],-139254.3,-67111.47,-101793.6,-156076.6,-80693.91,-106671.5,-136035,-101959.8,0.05,-0.02,1.02,-4,-2,-4,87,0
[15:14:00.208 29/11/2023],-139247.9,-67111.38,-101778.8,-156073.5,-80702.76,-106658.6,-136032.1,-101949,0.05,-0.02,1.02,-4,-2,-4,87,0
[15:14:00.212 29/11/2023],-139240.7,-67114.1,-101779.9,-156067.1,-80661.72,-106653.5,-136031,-101960.8,0.05,-0.02,1.02,-4,-2,-4,87,0
[15:14:00.216 29/11/2023],-139228.2,-67101.86,-101786.9,-156068.6,-80688.5,-106650.2,-136026.1,-101961.1,0.03,0.00,1.02,-4,-2,-4,87,0
[15:14:00.220 29/11/2023],-139236.9,-67116.79,-101801.6,-156088.3,-80720.1,-106662.7,-136032.8,-101953.9,0.03,0.00,1.02,-4,-2,-4,87,0
[15:14:00.224 29/11/2023],-139244.7,-67146.83,-101802,-156103.5,-80739.59,-106677,-136037.7,-101972.4,0.03,0.00,1.02,-4,-2,-4,87,0
[15:14:00.228 29/11/2023],-139246.7,-67171.46,-101810.9,-156110.7,-80736.64,-106697.4,-136045.2,-101982.2,0.03,0.00,1.02,-4,-2,-4,87,0
[15:14:00.232 29/11/2023],-139220.3,-67145.98,-101794.5,-156057.1,-80702.85,-106661,-136018.6,-101963.2,0.03,0.00,1.02,-4,-2,-4,87,0
[15:14:00.236 29/11/2023],-139221.9,-67147.19,-101806.8,-156079,-80710.45,-106662.7,-136017.4,-101956.3,0.03,0.00,1.02,-4,-2,-4,87,0
[15:14:00.240 29/11/2023],-139221.5,-67167.88,-101831.2,-156095.8,-80713.31,-106680.4,-136023.4,-101960.3,0.03,0.00,1.02,-4,-2,-4,87,0
[15:14:00.244 29/11/2023],-139199.3,-67208.52,-101859.5,-156095.1,-80692.12,-106677.8,-136027.3,-101952.2,0.03,0.00,1.02,-4,-2,-4,87,0
[15:14:00.248 29/11/2023],-139181.3,-67195.73,-101842.9,-156095.8,-80700.48,-106671.9,-136002.1,-101935.8,0.03,0.00,1.02,-4,-2,-4,87,0
[15:14:00.252 29/11/2023],-139196.1,-67146.29,-101822.4,-156077.1,-80688.5,-106662.7,-136010,-101949.3,0.05,-0.02,1.02,-4,-2,-4,87,0
[15:14:00.256 29/11/2023],-139212.6,-67176.24,-101834,-156100,-80699.67,-106673.3,-136008.7,-101972.9,0.05,-0.02,1.02,-4,-2,-4,87,0
[15:14:00.260 29/11/2023],-139231.8,-67190.86,-101845.5,-156091.2,-80740.8,-106686.9,-136039.2,-101993.7,0.05,-0.02,1.02,-4,-2,-4,87,0
[15:14:00.264 29/11/2023],-139184.1,-67211.42,-101843.2,-156094.2,-80692.16,-106675,-136015,-101953.9,0.03,0.00,1.00,-4,-2,-4,87,0
[15:14:00.268 29/11/2023],-139185.4,-67217.59,-101848,-156107.8,-80697.93,-106685.3,-136007,-101950.6,0.03,0.00,1.00,-4,-2,-4,87,0
[15:14:00.272 29/11/2023],-139180.2,-67228.91,-101853.8,-156113.4,-80698.11,-106697.7,-136008.9,-101955,0.03,0.00,1.00,-4,-2,-4,87,0
[15:14:00.276 29/11/2023],-139168.2,-67232.75,-101860.2,-156111.4,-80693.55,-106705.1,-136013.9,-101954.4,0.03,0.00,1.00,-4,-2,-4,87,0
[15:14:00.280 29/11/2023],-139150,-67231.67,-101866.9,-156099.4,-80688.9,-106687.6,-136001.6,-101963.4,0.03,0.00,1.00,-4,-2,-4,87,0
[15:14:00.284 29/11/2023],-139156,-67252.95,-101861.5,-156109.4,-80678.26,-106683.3,-136002.1,-101983.7,0.03,0.00,1.00,-4,-2,-4,87,0
[15:14:00.288 29/11/2023],-139189.2,-67193.45,-101854.5,-156114.5,-80712.37,-106697.7,-136015.5,-101955,0.03,0.00,1.00,-4,-2,-4,87,0
[15:14:00.292 29/11/2023],-139179.7,-67199,-101853.9,-156112.5,-80711.52,-106699,-136013.4,-101957.4,0.03,0.00,1.00,-4,-2,-4,87,0
[15:14:00.296 29/11/2023],-139178.3,-67203.16,-101856.2,-156100.7,-80707.01,-106680.9,-136010,-101950.2,0.03,0.00,1.00,-4,-2,-4,87,0
[15:14:00.300 29/11/2023],-139184.1,-67211.42,-101843.2,-156094.2,-80692.16,-106675,-136015,-101953.9,0.03,0.00,1.00,-4,-2,-4,87,0
[15:14:00.304 29/11/2023],-139185.4,-67217.59,-101848,-156107.8,-80697.93,-106685.3,-136007,-101950.6,0.03,0.00,1.00,-4,-2,-4,87,0
[15:14:00.308 29/11/2023],-139180.2,-67228.91,-101853.8,-156113.4,-80698.11,-106697.7,-136008.9,-101955,0.03,0.00,1.00,-4,-2,-4,87,0
[15:14:00.312 29/11/2023],-139168.2,-67232.75,-101860.2,-156111.4,-80693.55,-106705.1,-136013.9,-101954.4,0.03,0.00,1.00,-4,-2,-4,87,0
[15:14:00.316 29/11/2023],-139150,-67231.67,-101866.9,-156099.4,-80688.9,-106687.6,-136001.6,-101963.4,0.03,0.00,1.00,-4,-2,-4,87,0
[15:14:00.320 29/11/2023],-139156,-67252.95,-101861.5,-156109.4,-80678.26,-106683.3,-136002.1,-101983.7,0.03,0.00,1.00,-4,-2,-4,87,0
[15:14:00.324 29/11/2023],-139159.2,-67226.94,-101854.3,-156107.9,-80687.52,-106678.8,-136004,-101965.6,0.03,0.00,1.02,-4,-2,-4,87,0
[15:14:00.328 29/11/2023],-139186.5,-67257.56,-101875.3,-156128.9,-80685.19,-106690.1,-136019,-101975.4,0.03,0.00,1.02,-4,-2,-4,87,0
[15:14:00.332 29/11/2023],-139177.3,-67272.53,-101885.5,-156138.1,-80714.43,-106687.3,-135995.6,-101984.3,0.03,0.00,1.02,-4,-2,-4,87,0
[15:14:00.336 29/11/2023],-139141.5,-67241.38,-101849.1,-156114.4,-80723.37,-106680.6,-136006,-101968.3,0.03,0.00,1.02,-4,-2,-4,87,0
[15:14:00.340 29/11/2023],-139149.8,-67251.75,-101852.3,-156118.2,-80707.81,-106694.1,-136017.6,-101988.6,0.03,0.00,1.02,-4,-2,-4,87,0
[15:14:00.344 29/11/2023],-139154.5,-67267.17,-101860.6,-156128,-80700.48,-106698.3,-136009.5,-101973.6,0.03,0.00,1.02,-4,-2,-4,87,0
[15:14:00.348 29/11/2023],-139144.3,-67257.56,-101852.3,-156117.8,-80711.79,-106684.1,-136007.2,-101971.9,0.03,0.00,1.02,-4,-2,-4,87,0
[15:14:00.352 29/11/2023],-139146.3,-67271.46,-101865.6,-156132.1,-80703.88,-106699.7,-136010.8,-101978.6,0.03,0.00,1.02,-4,-2,-4,87,0
[15:14:00.356 29/11/2023],-139142.5,-67286.44,-101869.1,-156144.4,-80694.63,-106713.1,-136012.1,-102001.3,0.03,0.00,1.02,-4,-2,-4,87,0
[15:14:00.360 29/11/2023],-139138.8,-67285.37,-101853.7,-156148.6,-80686.17,-106693.6,-136013.2,-101981.2,0.03,0.00,1.00,-4,-2,-4,87,0
[15:14:00.364 29/11/2023],-139130.5,-67287.38,-101855.7,-156137.5,-80687.83,-106697.3,-136007.8,-101990.9,0.03,0.00,1.00,-4,-2,-4,87,0
[15:14:00.368 29/11/2023],-139110,-67279.11,-101848.3,-156103.1,-80706.96,-106707.6,-135999.6,-101967,0.03,0.00,1.00,-4,-2,-4,87,0
[15:14:00.372 29/11/2023],-139110.3,-67287.16,-101836.5,-156116.5,-80706.91,-106694.4,-135989.6,-101974.6,0.03,0.00,1.00,-4,-2,-4,87,0
[15:14:00.376 29/11/2023],-139130.8,-67314.6,-101838.1,-156148,-80736.11,-106704,-135992.5,-102002.2,0.03,0.00,1.00,-4,-2,-4,87,0
[15:14:00.380 29/11/2023],-139120.5,-67318.13,-101859.9,-156153.3,-80735.7,-106718.6,-136009.4,-102006.4,0.03,0.00,1.00,-4,-2,-4,87,0
[15:14:00.384 29/11/2023],-139101.9,-67291.31,-101845,-156119.1,-80709.11,-106707.7,-136005,-101984.8,0.03,0.00,1.00,-4,-2,-4,87,0
[15:14:00.388 29/11/2023],-139103,-67294.88,-101856.6,-156118.7,-80707.99,-106717.6,-135999.6,-101988.5,0.03,0.00,1.00,-4,-2,-4,87,0
[15:14:00.392 29/11/2023],-139115.3,-67324.66,-101881.1,-156159.8,-80727.26,-106736.1,-136009.9,-102010.9,0.03,0.00,1.00,-4,-2,-4,87,0
[15:14:00.396 29/11/2023],-139100.4,-67319.12,-101854,-156155,-80713.09,-106716.3,-135994.8,-102001.6,0.03,0.00,1.02,-4,-2,-4,87,0
[15:14:00.400 29/11/2023],-139083.5,-67288,-101826.5,-156130.8,-80689.84,-106709.7,-135978.9,-101969.3,0.03,0.00,1.02,-4,-2,-4,87,0
[15:14:00.404 29/11/2023],-139086.5,-67303.2,-101825.2,-156134.3,-80712.41,-106736.6,-135978.8,-101991.1,0.03,0.00,1.02,-4,-2,-4,87,0
[15:14:00.408 29/11/2023],-139095.8,-67323.41,-101842.4,-156157.1,-80710.05,-106744.4,-135994.4,-102003.3,0.03,0.00,1.02,-4,-2,-4,87,0
[15:14:00.412 29/11/2023],-139096.6,-67334.36,-101833.7,-156167.7,-80717.11,-106741.5,-135975.7,-102009.6,0.03,0.00,1.02,-4,-2,-4,87,0
[15:14:00.416 29/11/2023],-139057.3,-67312.32,-101802.9,-156126.1,-80683.18,-106722.3,-135961,-101984.9,0.03,0.00,1.02,-4,-2,-4,87,0
[15:14:00.420 29/11/2023],-139052.8,-67319.92,-101812.5,-156133,-80680.95,-106733.7,-135963.3,-101996.1,0.03,0.00,1.02,-4,-2,-4,87,0
[15:14:00.424 29/11/2023],-139066.4,-67323.5,-101809.8,-156126.3,-80693.86,-106726.6,-135974.1,-102003.6,0.03,0.00,1.02,-4,-2,-4,87,0
[15:14:00.428 29/11/2023],-139069.7,-67332.93,-101824.1,-156169.9,-80691.76,-106741.2,-135975.8,-102006.5,0.03,0.00,1.02,-4,-2,-4,87,0
[15:14:00.432 29/11/2023],-139054.8,-67320.45,-101804.5,-156165,-80661.23,-106742.2,-135957.4,-101998,0.03,0.00,1.02,-4,-2,-4,87,0
[15:14:00.436 29/11/2023],-139049,-67332.21,-101805.4,-156145.2,-80660.38,-106736,-135954.2,-101990,0.03,0.00,1.02,-4,-2,-4,87,0
[15:14:00.440 29/11/2023],-139062.8,-67364.67,-101810.7,-156165.6,-80675.89,-106760,-135970.1,-102013.9,0.03,0.00,1.02,-4,-2,-4,87,0
[15:14:00.444 29/11/2023],-139071.3,-67371.02,-101819.4,-156176.4,-80701.24,-106781.1,-135980.4,-102019.9,0.03,0.00,1.02,-4,-2,-4,87,0
[15:14:00.448 29/11/2023],-139031.9,-67322.83,-101800.5,-156155,-80701.06,-106759.5,-135945.7,-101990.5,0.03,0.00,1.02,-4,-2,-4,87,0
[15:14:00.452 29/11/2023],-139034.5,-67345.85,-101805,-156167.1,-80676.61,-106760.5,-135943,-102018.9,0.03,0.00,1.02,-4,-2,-4,87,0
[15:14:00.456 29/11/2023],-139039.3,-67342.05,-101788.5,-156159.3,-80697.13,-106775.6,-135947,-102011.4,0.03,0.00,1.02,-4,-2,-4,87,0
[15:14:00.460 29/11/2023],-139034.2,-67358.45,-101790.7,-156161.5,-80713.98,-106789.9,-135958.1,-102012.1,0.03,0.00,1.02,-4,-2,-4,87,0
[15:14:00.464 29/11/2023],-139030.1,-67369.9,-101796,-156168.1,-80673.12,-106770.7,-135948.6,-102005.2,0.03,0.00,1.02,-4,-2,-4,87,0
[15:14:00.468 29/11/2023],-139029.1,-67378.88,-101792.4,-156169.7,-80680.54,-106773,-135953.4,-102021.9,0.03,0.00,1.02,-4,-2,-4,87,0
[15:14:00.472 29/11/2023],-139038.3,-67388.09,-101800.3,-156190.1,-80705.66,-106788.6,-135959.6,-102030.4,0.03,0.00,1.02,-4,-2,-4,87,0
[15:14:00.476 29/11/2023],-139030.5,-67383.76,-101793.9,-156186.5,-80701.46,-106787,-135962,-102037.3,0.03,0.00,1.02,-4,-2,-4,87,0
[15:14:00.480 29/11/2023],-139015.7,-67389.44,-101795.8,-156188.8,-80698.29,-106779.6,-135954,-102030.4,0.03,0.00,1.02,-4,-2,-4,87,0
[15:14:00.484 29/11/2023],-139017.9,-67412.1,-101794.3,-156201.6,-80704.86,-106794.1,-135953.2,-102039.3,0.03,0.00,1.02,-4,-2,-4,87,0
[15:14:00.488 29/11/2023],-139017.1,-67406.87,-101806.1,-156205.8,-80693.28,-106803,-135959.3,-102033,0.03,0.00,1.02,-4,-2,-4,87,0
[15:14:00.492 29/11/2023],-139003.1,-67394.58,-101783,-156181.2,-80693.51,-106787.2,-135948.2,-102030.6,0.03,0.00,1.02,-4,-2,-4,87,0
[15:14:00.496 29/11/2023],-139002,-67415.41,-101793.8,-156203,-80693.59,-106794.4,-135948.3,-102037.5,0.03,0.00,1.02,-4,-2,-4,87,0
[15:14:00.500 29/11/2023],-138986,-67407.49,-101793.1,-156211.2,-80697.35,-106793,-135938.5,-102033.7,0.03,0.00,1.02,-4,-2,-4,87,0
[15:14:00.504 29/11/2023],-139004,-67412.99,-101822.8,-156212.7,-80692.56,-106833,-135953.4,-102043,0.03,0.00,1.02,-4,-2,-4,87,0
[15:14:00.508 29/11/2023],-139002.9,-67416.3,-101809.4,-156213.1,-80677.01,-106839.7,-135961.1,-102050.4,0.03,0.00,1.02,-4,-2,-4,87,0
[15:14:00.512 29/11/2023],-139001.7,-67412.28,-101809.2,-156219.4,-80690.78,-106819,-135945.7,-102048.4,0.03,0.00,1.02,-4,-2,-4,87,0
[15:14:00.516 29/11/2023],-138999.1,-67421.45,-101787.8,-156212.3,-80687.11,-106804.1,-135943.5,-102050,0.03,0.00,1.02,-4,-2,-4,87,0
[15:14:00.520 29/11/2023],-139001.7,-67442.36,-101796.2,-156226.3,-80719.12,-106822.6,-135951,-102053,0.03,0.00,1.02,-4,-2,-4,87,0
[15:14:00.524 29/11/2023],-138993.5,-67446.16,-101801.3,-156215.8,-80706.16,-106830.3,-135954.6,-102052.3,0.03,0.00,1.02,-4,-2,-4,87,0
[15:14:00.528 29/11/2023],-138982.3,-67435.08,-101806.5,-156214.9,-80709.87,-106829.8,-135952,-102058.5,0.03,0.00,1.02,-4,-2,-4,87,0
[15:14:00.532 29/11/2023],-138953.4,-67408.03,-101787,-156192.4,-80691.45,-106812.9,-135928.2,-102026.1,0.03,0.00,1.02,-4,-2,-4,87,0
[15:14:00.536 29/11/2023],-138960.3,-67429.31,-101795.3,-156217.9,-80687.6,-106837.3,-135949.4,-102062.7,0.03,0.00,1.02,-4,-2,-4,87,0
[15:14:00.540 29/11/2023],-138969.6,-67440.09,-101790.8,-156232.6,-80668.56,-106843,-135936.2,-102062.1,0.03,0.00,1.02,-4,-2,-4,87,0
[15:14:00.544 29/11/2023],-138953.6,-67456.53,-101786.7,-156260.6,-80675.35,-106853.3,-135926.1,-102054.3,0.03,0.00,1.02,-4,-2,-4,87,0
[15:14:00.548 29/11/2023],-138935.4,-67418.72,-101829,-156214.1,-80683.58,-106828.9,-135920.1,-102049.5,0.03,0.00,1.02,-4,-2,-4,87,0
[15:14:00.552 29/11/2023],-138956.6,-67429.49,-102038.4,-156213.7,-80686.09,-106829.1,-135935.4,-102044.8,0.03,0.00,1.02,-4,-2,-4,87,0
[15:14:00.556 29/11/2023],-138966.5,-67448.13,-102011.3,-156237.3,-80694.53,-106835,-135950.6,-102044.1,0.03,0.00,1.02,-4,-2,-4,87,0
[15:14:00.560 29/11/2023],-138974.2,-67454.3,-101925.6,-156238.3,-80709.91,-106842.8,-135949.4,-102073.4,0.03,0.00,1.02,-4,-2,-4,87,0
[15:14:00.564 29/11/2023],-138960.2,-67454.52,-101865.9,-156231.6,-80673.61,-106843.8,-135937.2,-102053.5,0.03,0.00,1.02,-4,-2,-4,87,0
[15:14:00.568 29/11/2023],-138945.5,-67446.25,-101836.5,-156234.8,-80659.44,-106841.7,-135921.6,-102051.3,0.03,0.00,1.02,-4,-2,-4,87,0
[15:14:00.572 29/11/2023],-138940.8,-67452.51,-101812.3,-156238.3,-80675.8,-106854.7,-135924.7,-102061,0.03,0.00,1.02,-4,-2,-4,87,0
[15:14:00.576 29/11/2023],-138937,-67446.25,-101791.7,-156230.8,-80669.5,-106854.3,-135936.9,-102059.6,0.03,0.00,1.02,-4,-2,-4,87,0
[15:14:00.580 29/11/2023],-138930.5,-67432.44,-101793.6,-156237.1,-80682.28,-106846.1,-135927.8,-102033.2,0.03,0.00,1.02,-4,-2,-4,87,0
[15:14:00.584 29/11/2023],-138909.4,-67439.41,-101753.5,-156216.8,-80673.7,-106832.5,-135918.3,-102043.3,0.03,0.00,1.02,-4,-2,-4,87,0
[15:14:00.588 29/11/2023],-138925.7,-67461.63,-101775,-156221.3,-80669.68,-106856.8,-135924.8,-102073.6,0.03,0.00,1.02,-4,-2,-4,87,0
[15:14:00.592 29/11/2023],-138919.9,-67460.96,-101770.4,-156231.7,-80680.18,-106857.3,-135923.5,-102055.8,0.03,0.00,1.02,-4,-2,-4,87,0
[15:14:00.596 29/11/2023],-138909.9,-67445.36,-101770.2,-156235.2,-80693.51,-106856.8,-135924.8,-102033.3,0.03,0.00,1.02,-4,-2,-4,87,0
[15:14:00.600 29/11/2023],-138919.6,-67454.43,-101772.1,-156249.9,-80681.39,-106866.3,-135927.5,-102054.6,0.03,0.00,1.02,-4,-2,-4,87,0
[15:14:00.604 29/11/2023],-138932.9,-67449.38,-101767.1,-156252.2,-80684.25,-106867.5,-135922.1,-102052.9,0.03,0.00,1.02,-4,-2,-4,87,0
[15:14:00.608 29/11/2023],-138950.7,-67459.35,-101765,-156253.6,-80688.81,-106881.3,-135931.5,-102070.8,0.03,0.00,1.02,-4,-2,-4,87,0
[15:14:00.612 29/11/2023],-138940.6,-67464.58,-101771.6,-156250.5,-80671.24,-106881.2,-135923.7,-102079.5,0.05,0.00,1.00,-4,-2,-4,87,0
[15:14:00.616 29/11/2023],-138928.7,-67475.53,-101782.3,-156239.8,-80633.73,-106875.4,-135913.2,-102073.6,0.05,0.00,1.00,-4,-2,-4,87,0
[15:14:00.620 29/11/2023],-138927.4,-67451.21,-101786.7,-156234.8,-80655.82,-106873.6,-135921.8,-102061,0.05,0.00,1.00,-4,-2,-4,87,0
[15:14:00.624 29/11/2023],-138927.8,-67466.01,-101786.6,-156242.9,-80694.13,-106884.1,-135933.6,-102069.8,0.05,0.00,1.00,-4,-2,-4,87,0
[15:14:00.628 29/11/2023],-138923.6,-67464.8,-101780.4,-156267.4,-80692.16,-106877.5,-135926,-102060.1,0.05,0.00,1.00,-4,-2,-4,87,0
[15:14:00.632 29/11/2023],-138909.3,-67450.81,-101784.8,-156241.2,-80673.57,-106877.1,-135917.2,-102060.8,0.05,0.00,1.00,-4,-2,-4,87,0
[15:14:00.636 29/11/2023],-138907.7,-67464.98,-101806.3,-156257.2,-80686.58,-106883.6,-135922.6,-102066.4,0.05,0.00,1.00,-4,-2,-4,87,0
[15:14:00.640 29/11/2023],-138910.6,-67474.33,-101819.8,-156270.9,-80689.44,-106900.6,-135925.6,-102087.4,0.05,0.00,1.00,-4,-2,-4,87,0
[15:14:00.644 29/11/2023],-138922.8,-67481.08,-101807,-156265.1,-80683.8,-106905,-135914.4,-102083,0.05,0.00,1.00,-4,-2,-4,87,0
[15:14:00.648 29/11/2023],-138926,-67489.21,-101819.8,-156270.4,-80662.16,-106913.4,-135915,-102081.6,0.03,0.00,1.02,-4,-2,-4,87,0
[15:14:00.652 29/11/2023],-138921.3,-67487.6,-101824.3,-156271.5,-80659.71,-106919.5,-135927.8,-102087.5,0.03,0.00,1.02,-4,-2,-4,87,0
[15:14:00.656 29/11/2023],-138931.5,-67495.25,-101839.7,-156291.2,-80688.63,-106926.1,-135935.3,-102113.4,0.03,0.00,1.02,-4,-2,-4,87,0
[15:14:00.660 29/11/2023],-138933.7,-67489.13,-101847.6,-156297.3,-80674.38,-106933.8,-135925.6,-102094.1,0.03,0.00,1.02,-4,-2,-4,87,0
[15:14:00.664 29/11/2023],-138910.9,-67488.36,-101833.8,-156279.6,-80664.72,-106926.2,-135908,-102079,0.03,0.00,1.02,-4,-2,-4,87,0
[15:14:00.668 29/11/2023],-138915.2,-67499.18,-101844.6,-156282.3,-80677.86,-106931.4,-135915.5,-102091.9,0.03,0.00,1.02,-4,-2,-4,87,0
[15:14:00.672 29/11/2023],-138942.2,-67531.68,-101869.4,-156296.9,-80686.71,-106944,-135926.7,-102116.8,0.03,0.00,1.02,-4,-2,-4,87,0
[15:14:00.676 29/11/2023],-138925.3,-67520.86,-101864.2,-156285.7,-80698.34,-106929.3,-135920.3,-102102.9,0.03,0.00,1.02,-4,-2,-4,87,0
[15:14:00.680 29/11/2023],-138917.4,-67521.8,-101865.7,-156290,-80679.47,-106922.5,-135918,-102095.2,0.03,0.00,1.02,-4,-2,-4,87,0
[15:14:00.684 29/11/2023],-138906.8,-67518.41,-101855,-156306.8,-80652.38,-106919.3,-135904.3,-102082.9,0.05,0.00,1.02,-4,-2,-4,87,0
[15:14:00.688 29/11/2023],-138901.7,-67507.01,-101878.4,-156285.6,-80668.34,-106936.3,-135890.8,-102077.2,0.05,0.00,1.02,-4,-2,-4,87,0
[15:14:00.692 29/11/2023],-138900,-67513.62,-101877.1,-156280.3,-80672.59,-106939.9,-135901.3,-102079.4,0.05,0.00,1.02,-4,-2,-4,87,0
[15:14:00.696 29/11/2023],-138906.2,-67516.88,-101873,-156285.5,-80663.73,-106951.4,-135909.2,-102095.4,0.05,0.00,1.02,-4,-2,-4,87,0
[15:14:00.700 29/11/2023],-138907,-67516.8,-101877.8,-156296.4,-80653.54,-106953,-135901.7,-102097.5,0.05,0.00,1.02,-4,-2,-4,87,0
[15:14:00.704 29/11/2023],-138919.1,-67524.53,-101891.6,-156318.3,-80687.2,-106973.3,-135916.3,-102106.7,0.05,0.00,1.02,-4,-2,-4,87,0
[15:14:00.708 29/11/2023],-138918.4,-67543.26,-101909,-156311.6,-80674.15,-106969.1,-135923.4,-102101.3,0.05,0.00,1.02,-4,-2,-4,87,0
[15:14:00.712 29/11/2023],-138907.6,-67542.59,-101910.9,-156300.2,-80678.17,-106960.7,-135914.2,-102103.5,0.05,0.00,1.02,-4,-2,-4,87,0
[15:14:00.716 29/11/2023],-138895.9,-67521.94,-101900.8,-156298.7,-80678.62,-106954.5,-135894.2,-102099.7,0.05,0.00,1.02,-4,-2,-4,87,0
[15:14:00.720 29/11/2023],-138899.3,-67497.75,-101916.8,-156302,-80669.68,-106965.3,-135895.6,-102093.6,0.02,0.00,1.02,-4,-2,-4,87,0
[15:14:00.724 29/11/2023],-138908,-67519.21,-101929.9,-156313.7,-80654.57,-106972.8,-135904.1,-102090.6,0.02,0.00,1.02,-4,-2,-4,87,0
[15:14:00.728 29/11/2023],-138907.2,-67553.95,-101929.9,-156310.3,-80651.93,-106979.2,-135900.9,-102115.1,0.02,0.00,1.02,-4,-2,-4,87,0
[15:14:00.732 29/11/2023],-138885.1,-67540.48,-101906.3,-156300.2,-80649.88,-106968,-135875.5,-102107,0.02,0.00,1.02,-4,-2,-4,87,0
[15:14:00.736 29/11/2023],-138887.1,-67539.28,-101903.7,-156311.3,-80685.68,-106986.7,-135884.2,-102110.5,0.02,0.00,1.02,-4,-2,-4,87,0
[15:14:00.740 29/11/2023],-138904.8,-67560.56,-101926.1,-156329,-80705.58,-107000.5,-135900.7,-102111.9,0.02,0.00,1.02,-4,-2,-4,87,0
[15:14:00.744 29/11/2023],-138909.5,-67560.78,-101939.6,-156331.5,-80696.91,-107010.9,-135902.4,-102121.6,0.02,0.00,1.02,-4,-2,-4,87,0
[15:14:00.748 29/11/2023],-138895.5,-67553.85,-101936.8,-156320.8,-80680.5,-107000.2,-135892.6,-102121.9,0.02,0.00,1.02,-4,-2,-4,87,0
[15:14:00.752 29/11/2023],-138905.6,-67554.26,-101950.5,-156325.5,-80677.1,-107008,-135893.2,-102119,0.02,0.00,1.02,-4,-2,-4,87,0
[15:14:00.756 29/11/2023],-138904.9,-67556.98,-101973.3,-156340.3,-80675.53,-107015.9,-135897.8,-102119.8,0.03,0.00,1.00,-4,-2,-4,87,0
[15:14:00.760 29/11/2023],-138897.1,-67548.94,-101970.2,-156338,-80707.05,-107013,-135885.8,-102125.4,0.03,0.00,1.00,-4,-2,-4,87,0
[15:14:00.764 29/11/2023],-138896.8,-67550.63,-101949.7,-156341.7,-80686.84,-107014.2,-135898,-102125.3,0.03,0.00,1.00,-4,-2,-4,87,0
[15:14:00.768 29/11/2023],-138902.9,-67562.26,-101957.7,-156341.5,-80683.27,-107014.6,-135897.4,-102122.1,0.03,0.00,1.00,-4,-2,-4,87,0
[15:14:00.772 29/11/2023],-138895.3,-67563.91,-101975.4,-156332.2,-80685.05,-107025.6,-135903.3,-102139.8,0.03,0.00,1.00,-4,-2,-4,87,0
[15:14:00.776 29/11/2023],-138897.7,-67564.36,-101993.6,-156366.6,-80676.02,-107039.1,-135904,-102124.2,0.03,0.00,1.00,-4,-2,-4,87,0
[15:14:00.780 29/11/2023],-138892.8,-67563.38,-101983.5,-156369.6,-80672.77,-107019.3,-135877.5,-102123,0.03,0.00,1.00,-4,-2,-4,87,0
[15:14:00.784 29/11/2023],-138905.8,-67566.59,-101969.2,-156333.9,-80670.3,-107020.6,-135880.8,-102123.4,0.03,0.00,1.00,-4,-2,-4,87,0
[15:14:00.788 29/11/2023],-138917.7,-67584.38,-101990.3,-156352.2,-80684.48,-107051.9,-135894.5,-102143.9,0.03,0.00,1.00,-4,-2,-4,87,0
[15:14:00.792 29/11/2023],-138915,-67585.05,-101994.3,-156344.6,-80712.19,-107047.6,-135895.6,-102135.9,0.03,0.00,1.02,-4,-2,-4,87,0
[15:14:00.796 29/11/2023],-138899.7,-67563.69,-101994.5,-156365.3,-80667.13,-107035.7,-135882.6,-102099.7,0.03,0.00,1.02,-4,-2,-4,87,0
[15:14:00.800 29/11/2023],-138873.6,-67531.55,-101973.3,-156341.3,-80651.39,-107007.9,-135855.4,-102079.4,0.03,0.00,1.02,-4,-2,-4,87,0
[15:14:00.804 29/11/2023],-138889.1,-67563.2,-101980,-156352.5,-80665.61,-107027.6,-135863.8,-102117.2,0.03,0.00,1.02,-4,-2,-4,87,0
[15:14:00.808 29/11/2023],-138906.6,-67594.18,-102007.4,-156373.4,-80711.12,-107046.2,-135871,-102142.1,0.03,0.00,1.02,-4,-2,-4,87,0
[15:14:00.812 29/11/2023],-138914.3,-67620.91,-102040.2,-156397.9,-80711.61,-107076.9,-135892.5,-102166.7,0.03,0.00,1.02,-4,-2,-4,87,0
[15:14:00.816 29/11/2023],-138913.3,-67594.58,-102021.7,-156388.8,-80673.21,-107083.4,-135901.7,-102147.7,0.03,0.00,1.02,-4,-2,-4,87,0
[15:14:00.820 29/11/2023],-138907.2,-67590.2,-102018.2,-156385.7,-80676.48,-107075.5,-135901,-102168.1,0.03,0.00,1.02,-4,-2,-4,87,0
[15:14:00.824 29/11/2023],-138910,-67616.08,-102030.4,-156402.1,-80715.14,-107072,-135890.2,-102174.9,0.03,0.00,1.02,-4,-2,-4,87,0
[15:14:00.828 29/11/2023],-138887.8,-67595.47,-102036.4,-156403.3,-80703.16,-107094.5,-135861.1,-102132,0.03,0.00,1.02,-4,-2,-4,87,0
[15:14:00.832 29/11/2023],-138854.5,-67561.27,-102029.8,-156364,-80675.13,-107097.2,-135822,-102150.6,0.03,0.00,1.02,-4,-2,-4,87,0
[15:14:00.836 29/11/2023],-138900.8,-67600.13,-102034.1,-156398.1,-80681.93,-107080,-135880.7,-102170,0.03,0.00,1.02,-4,-2,-4,87,0
[15:14:00.840 29/11/2023],-138933.1,-67634.55,-102034.2,-156399,-80675.22,-107073,-135912.9,-102161.9,0.03,0.00,1.02,-4,-2,-4,87,0
[15:14:00.844 29/11/2023],-138927.8,-67631.23,-102041.9,-156386.8,-80677.59,-107063.8,-135903.2,-102156.7,0.03,0.00,1.02,-4,-2,-4,87,0
[15:14:00.848 29/11/2023],-138897.7,-67602.89,-102041.5,-156364.2,-80666.23,-107049.4,-135883.9,-102137.1,0.03,0.00,1.02,-4,-2,-4,87,0
[15:14:00.852 29/11/2023],-138885.4,-67560.02,-102027.5,-156355.9,-80666.68,-107048,-135880.3,-102111.4,0.03,0.00,1.02,-4,-2,-4,87,0
[15:14:00.856 29/11/2023],-138870.7,-67542.32,-102014.1,-156339.5,-80662.8,-107056,-135878.5,-102102.7,0.03,0.00,1.02,-4,-2,-4,87,0
[15:14:00.860 29/11/2023],-138863.4,-67552.11,-102017.2,-156340,-80656.18,-107056.1,-135871.6,-102115.5,0.03,0.00,1.02,-4,-2,-4,87,0
[15:14:00.864 29/11/2023],-138858.4,-67541.47,-102049,-156360.5,-80642.95,-107060.5,-135869.8,-102114,0.05,-0.02,1.02,-4,-2,-4,87,0
[15:14:00.868 29/11/2023],-138862.4,-67532.04,-102056.7,-156341.8,-80673.43,-107061.1,-135869.4,-102122,0.03,0.02,1.02,-4,-2,-4,87,0
[15:14:00.872 29/11/2023],-138883.5,-67572.45,-102076.5,-156379.1,-80678.71,-107072.3,-135882.7,-102132.3,0.03,0.02,1.02,-4,-2,-4,87,0
[15:14:00.876 29/11/2023],-138878.9,-67571.83,-102076.2,-156384.6,-80676.65,-107086.4,-135888.2,-102139.8,0.03,0.02,1.02,-4,-2,-4,87,0
[15:14:00.880 29/11/2023],-138867,-67568.34,-102061.9,-156383.4,-80673.79,-107090.6,-135876.7,-102145.5,0.03,0.02,1.02,-4,-2,-4,87,0
[15:14:00.884 29/11/2023],-138896.1,-67588.59,-102086.3,-156383.2,-80669.63,-107109,-135889,-102168.5,0.03,0.02,1.02,-4,-2,-4,87,0
[15:14:00.888 29/11/2023],-138918.2,-67618,-102101.2,-156411.5,-80684.84,-107118.4,-135902.8,-102178,0.03,0.02,1.02,-4,-2,-4,87,0
[15:14:00.892 29/11/2023],-138908.8,-67618.09,-102095.3,-156405.9,-80658.32,-107099.8,-135895.9,-102177.5,0.03,0.02,1.02,-4,-2,-4,87,0
[15:14:00.896 29/11/2023],-138890.1,-67590.51,-102095,-156378.8,-80631.41,-107087.9,-135866.5,-102154.5,0.03,0.02,1.02,-4,-2,-4,87,0
[15:14:00.900 29/11/2023],-138858.4,-67541.47,-102049,-156360.5,-80642.95,-107060.5,-135869.8,-102114,0.03,0.02,1.02,-4,-2,-4,87,0
[15:14:00.904 29/11/2023],-138862.4,-67532.04,-102056.7,-156341.8,-80673.43,-107061.1,-135869.4,-102122,0.03,0.02,1.02,-4,-2,-4,87,0
[15:14:00.908 29/11/2023],-138883.5,-67572.45,-102076.5,-156379.1,-80678.71,-107072.3,-135882.7,-102132.3,0.03,0.02,1.02,-4,-2,-4,87,0
[15:14:00.912 29/11/2023],-138878.9,-67571.83,-102076.2,-156384.6,-80676.65,-107086.4,-135888.2,-102139.8,0.03,0.02,1.02,-4,-2,-4,87,0
[15:14:00.916 29/11/2023],-138867,-67568.34,-102061.9,-156383.4,-80673.79,-107090.6,-135876.7,-102145.5,0.03,0.02,1.02,-4,-2,-4,87,0
[15:14:00.920 29/11/2023],-138896.1,-67588.59,-102086.3,-156383.2,-80669.63,-107109,-135889,-102168.5,0.03,0.02,1.02,-4,-2,-4,87,0
[15:14:00.924 29/11/2023],-138918.2,-67618,-102101.2,-156411.5,-80684.84,-107118.4,-135902.8,-102178,0.03,0.02,1.02,-4,-2,-4,87,0
[15:14:00.928 29/11/2023],-138908.8,-67618.09,-102095.3,-156405.9,-80658.32,-107099.8,-135895.9,-102177.5,0.03,0.02,1.02,-4,-2,-4,87,0
[15:14:00.932 29/11/2023],-138890.1,-67590.51,-102095,-156378.8,-80631.41,-107087.9,-135866.5,-102154.5,0.03,0.02,1.02,-4,-2,-4,87,0
[15:14:00.936 29/11/2023],-138894.2,-67595.43,-102097.9,-156397.5,-80666.82,-107100.6,-135877.9,-102153.5,0.05,0.00,1.00,-4,-2,-4,87,0
[15:14:00.940 29/11/2023],-138903.3,-67606.56,-102105.7,-156399.3,-80680.59,-107120.4,-135877.6,-102173.6,0.05,0.00,1.00,-4,-2,-4,87,0
[15:14:00.944 29/11/2023],-138901.5,-67599.09,-102094.5,-156389.4,-80696.45,-107106.3,-135884,-102167.5,0.05,0.00,1.00,-4,-2,-4,87,0
[15:14:00.948 29/11/2023],-138879.1,-67576.2,-102080.1,-156377.4,-80651.44,-107081.4,-135858.2,-102140.6,0.05,0.00,1.00,-4,-2,-4,87,0
[15:14:00.952 29/11/2023],-138893.6,-67601.77,-102095.2,-156412.7,-80659.66,-107110.4,-135864,-102161.1,0.05,0.00,1.00,-4,-2,-4,87,0
[15:14:00.956 29/11/2023],-138904,-67619.66,-102108.4,-156404.6,-80651.17,-107126.1,-135858.4,-102178.5,0.05,0.00,1.00,-4,-2,-4,87,0
[15:14:00.960 29/11/2023],-138908.9,-67615.9,-102104.4,-156393.5,-80678.57,-107119.1,-135874.6,-102178.4,0.05,0.00,1.00,-4,-2,-4,87,0
[15:14:00.964 29/11/2023],-138896.7,-67607.72,-102087.3,-156378.5,-80657.7,-107109.6,-135862.3,-102164.1,0.05,0.00,1.00,-4,-2,-4,87,0
[15:14:00.968 29/11/2023],-138906.5,-67619.34,-102095.6,-156391.4,-80656.8,-107120.9,-135865.7,-102165.2,0.05,0.00,1.00,-4,-2,-4,87,0
[15:14:00.972 29/11/2023],-138957,-67728.96,-102154.6,-156460.1,-80666.19,-107173.2,-135884.9,-102234.6,0.03,0.00,1.02,-4,-2,-4,87,0
[15:14:00.976 29/11/2023],-138965,-67752.56,-102173.7,-156480.3,-80670.75,-107185.7,-135873.8,-102241.2,0.03,0.00,1.02,-4,-2,-4,87,0
[15:14:00.980 29/11/2023],-138959.6,-67746.17,-102175.6,-156477,-80662.8,-107185.9,-135870.2,-102240.9,0.03,0.00,1.02,-4,-2,-4,87,0
[15:14:00.984 29/11/2023],-138962.6,-67765.75,-102186.5,-156483.8,-80659.27,-107178,-135853.2,-102261.3,0.03,0.02,1.02,-4,-2,-4,87,0
[15:14:00.988 29/11/2023],-138978.7,-67786.98,-102178.9,-156480.8,-80678.22,-107190.8,-135863.5,-102260.8,0.03,0.02,1.02,-4,-2,-4,87,0
[15:14:00.992 29/11/2023],-138999.4,-67794.49,-102192.8,-156515.8,-80669.63,-107218.8,-135869.2,-102264.9,0.03,0.02,1.02,-4,-2,-4,87,0
[15:14:00.996 29/11/2023],-138985.6,-67783.85,-102173.2,-156506.5,-80650.5,-107203.8,-135854.8,-102266.2,0.03,0.02,1.02,-4,-2,-4,87,0
[15:14:01.000 29/11/2023],-138987.9,-67796.37,-102181.7,-156499.8,-80647.15,-107194.4,-135844.8,-102277.2,0.03,0.02,1.02,-4,-2,-4,87,0
[15:14:01.004 29/11/2023],-139003.6,-67817.2,-102186.6,-156510.3,-80662.8,-107215.9,-135864.8,-102279,0.03,0.02,1.02,-4,-2,-4,87,0
[15:14:01.008 29/11/2023],-138957,-67728.96,-102154.6,-156460.1,-80666.19,-107173.2,-135884.9,-102234.6,0.03,0.02,1.02,-4,-2,-4,87,0
[15:14:01.012 29/11/2023],-138965,-67752.56,-102173.7,-156480.3,-80670.75,-107185.7,-135873.8,-102241.2,0.03,0.02,1.02,-4,-2,-4,87,0
[15:14:01.016 29/11/2023],-138959.6,-67746.17,-102175.6,-156477,-80662.8,-107185.9,-135870.2,-102240.9,0.03,0.02,1.02,-4,-2,-4,87,0
[15:14:01.020 29/11/2023],-138962.6,-67765.75,-102186.5,-156483.8,-80659.27,-107178,-135853.2,-102261.3,0.03,0.02,1.02,-4,-2,-4,87,0
[15:14:01.024 29/11/2023],-138978.7,-67786.98,-102178.9,-156480.8,-80678.22,-107190.8,-135863.5,-102260.8,0.03,0.02,1.02,-4,-2,-4,87,0
[15:14:01.028 29/11/2023],-138999.4,-67794.49,-102192.8,-156515.8,-80669.63,-107218.8,-135869.2,-102264.9,0.03,0.02,1.02,-4,-2,-4,87,0
[15:14:01.032 29/11/2023],-138985.6,-67783.85,-102173.2,-156506.5,-80650.5,-107203.8,-135854.8,-102266.2,0.03,0.02,1.02,-4,-2,-4,87,0
[15:14:01.036 29/11/2023],-138987.9,-67796.37,-102181.7,-156499.8,-80647.15,-107194.4,-135844.8,-102277.2,0.03,0.02,1.02,-4,-2,-4,87,0
[15:14:01.040 29/11/2023],-139003.6,-67817.2,-102186.6,-156510.3,-80662.8,-107215.9,-135864.8,-102279,0.03,0.02,1.02,-4,-2,-4,87,0
[15:14:01.044 29/11/2023],-138999.9,-67853.91,-102226,-156530.6,-80641.83,-107253.3,-135847.2,-102315.4,0.02,0.00,1.02,-4,-2,-4,87,0
[15:14:01.048 29/11/2023],-138976.4,-67827.57,-102203.6,-156514.2,-80661.95,-107228,-135834.3,-102278.8,0.03,0.00,1.02,-4,-2,-4,87,0
[15:14:01.052 29/11/2023],-138981.5,-67845.19,-102223.5,-156547,-80663.73,-107242.6,-135841.7,-102292.5,0.03,0.00,1.02,-4,-2,-4,87,0
[15:14:01.056 29/11/2023],-138979.2,-67846.26,-102214.9,-156536.1,-80658.32,-107253.1,-135844.6,-102304.6,0.03,0.00,1.02,-4,-2,-4,87,0
[15:14:01.060 29/11/2023],-138970.4,-67835.98,-102225.7,-156546.8,-80648.49,-107249.3,-135833.1,-102298.3,0.03,0.00,1.02,-4,-2,-4,87,0
[15:14:01.064 29/11/2023],-138967.2,-67817.6,-102233.7,-156537.3,-80648.17,-107237.7,-135824.9,-102273.8,0.03,0.00,1.02,-4,-2,-4,87,0
[15:14:01.068 29/11/2023],-138969.6,-67816.45,-102241.7,-156538.5,-80645.8,-107248.5,-135829.1,-102291.3,0.03,0.00,1.02,-4,-2,-4,87,0
[15:14:01.072 29/11/2023],-138982.3,-67824.35,-102232.3,-156544.5,-80651.08,-107262.1,-135846.6,-102294.1,0.03,0.00,1.02,-4,-2,-4,87,0
[15:14:01.076 29/11/2023],-138988,-67855.06,-102248.7,-156549.1,-80643.88,-107269.3,-135847.5,-102288.7,0.03,0.00,1.02,-4,-2,-4,87,0
[15:14:01.080 29/11/2023],-138999.9,-67853.91,-102226,-156530.6,-80641.83,-107253.3,-135847.2,-102315.4,0.03,0.00,1.02,-4,-2,-4,87,0
[15:14:01.084 29/11/2023],-138976.4,-67827.57,-102203.6,-156514.2,-80661.95,-107228,-135834.3,-102278.8,0.03,0.00,1.02,-4,-2,-4,87,0
[15:14:01.088 29/11/2023],-138981.5,-67845.19,-102223.5,-156547,-80663.73,-107242.6,-135841.7,-102292.5,0.03,0.00,1.02,-4,-2,-4,87,0
[15:14:01.092 29/11/2023],-138979.2,-67846.26,-102214.9,-156536.1,-80658.32,-107253.1,-135844.6,-102304.6,0.03,0.00,1.02,-4,-2,-4,87,0
[15:14:01.096 29/11/2023],-138970.4,-67835.98,-102225.7,-156546.8,-80648.49,-107249.3,-135833.1,-102298.3,0.03,0.00,1.02,-4,-2,-4,87,0
[15:14:01.100 29/11/2023],-138967.2,-67817.6,-102233.7,-156537.3,-80648.17,-107237.7,-135824.9,-102273.8,0.03,0.00,1.02,-4,-2,-4,87,0
[15:14:01.104 29/11/2023],-138969.6,-67816.45,-102241.7,-156538.5,-80645.8,-107248.5,-135829.1,-102291.3,0.03,0.00,1.02,-4,-2,-4,87,0
[15:14:01.108 29/11/2023],-138982.3,-67824.35,-102232.3,-156544.5,-80651.08,-107262.1,-135846.6,-102294.1,0.03,0.00,1.02,-4,-2,-4,87,0
[15:14:01.112 29/11/2023],-139078.1,-67950.69,-102326.8,-156609.1,-80674.95,-107331.7,-135879.6,-102351,0.03,0.00,1.02,-4,-2,-4,87,0
[15:14:01.116 29/11/2023],-138981.6,-67850.55,-102256.6,-156532.3,-80661.05,-107258.5,-135838.9,-102286.9,0.05,0.00,1.00,-4,-2,-4,87,0
[15:14:01.120 29/11/2023],-138966.3,-67849.79,-102251.6,-156522.9,-80657.3,-107264.2,-135824,-102281.7,0.05,0.00,1.00,-4,-2,-4,87,0
[15:14:01.124 29/11/2023],-138991.2,-67868.34,-102265.9,-156553,-80665.97,-107276.9,-135847.6,-102304.8,0.05,0.00,1.00,-4,-2,-4,87,0
[15:14:01.128 29/11/2023],-139022.7,-67899.77,-102286.1,-156589.1,-80681.7,-107300.8,-135879.4,-102336.7,0.05,0.00,1.00,-4,-2,-4,87,0
[15:14:01.132 29/11/2023],-139003.5,-67897,-102295.1,-156583.7,-80644.78,-107305.5,-135864.2,-102350.2,0.05,0.00,1.00,-4,-2,-4,87,0
[15:14:01.136 29/11/2023],-139000.8,-67912.29,-102325.7,-156587.6,-80664.45,-107306.2,-135854.9,-102357.3,0.05,0.00,1.00,-4,-2,-4,87,0
[15:14:01.140 29/11/2023],-139045.7,-67939.42,-102356.5,-156640.2,-80673.26,-107351.9,-135887.5,-102351.1,0.05,0.00,1.00,-4,-2,-4,87,0
[15:14:01.144 29/11/2023],-139033.3,-67933.52,-102363,-156626.8,-80683.23,-107340.9,-135882.9,-102358.8,0.05,0.00,1.00,-4,-2,-4,87,0
[15:14:01.148 29/11/2023],-139014.2,-67919.3,-102348.2,-156628.7,-80662.48,-107341,-135874,-102344.8,0.05,0.00,1.00,-4,-2,-4,87,0
[15:14:01.152 29/11/2023],-139081.5,-67977.11,-102323.8,-156617.3,-80684.92,-107326.2,-135890.4,-102350.6,0.03,0.00,1.02,-4,-2,-4,87,0
[15:14:01.156 29/11/2023],-139099.5,-67980.37,-102349.6,-156625.8,-80665.84,-107321,-135905.4,-102355.8,0.03,0.00,1.02,-4,-2,-4,87,0
[15:14:01.160 29/11/2023],-139085.6,-67976.21,-102360.7,-156634.9,-80683.94,-107325.1,-135893.4,-102361.3,0.03,0.00,1.02,-4,-2,-4,87,0
[15:14:01.164 29/11/2023],-139061.9,-67959.9,-102365.7,-156633.4,-80686.17,-107341.8,-135885.8,-102366.1,0.03,0.00,1.02,-4,-2,-4,87,0
[15:14:01.168 29/11/2023],-139050,-67929.59,-102343.7,-156608.1,-80679.34,-107342.2,-135893.6,-102345.9,0.03,0.00,1.02,-4,-2,-4,87,0
[15:14:01.172 29/11/2023],-139053.9,-67939.87,-102352.6,-156633.7,-80666.51,-107349,-135887.5,-102342.9,0.03,0.00,1.02,-4,-2,-4,87,0
[15:14:01.176 29/11/2023],-139045.7,-67939.42,-102356.5,-156640.2,-80673.26,-107351.9,-135887.5,-102351.1,0.03,0.00,1.02,-4,-2,-4,87,0
[15:14:01.180 29/11/2023],-139033.3,-67933.52,-102363,-156626.8,-80683.23,-107340.9,-135882.9,-102358.8,0.03,0.00,1.02,-4,-2,-4,87,0
[15:14:01.184 29/11/2023],-139014.2,-67919.3,-102348.2,-156628.7,-80662.48,-107341,-135874,-102344.8,0.03,0.00,1.02,-4,-2,-4,87,0
[15:14:01.188 29/11/2023],-139014.3,-67911.98,-102354.8,-156617.8,-80668.7,-107355.5,-135871,-102345.3,0.02,-0.02,1.00,-4,-2,-4,87,0
[15:14:01.192 29/11/2023],-139014,-67917.61,-102357.6,-156630.1,-80683.98,-107376.1,-135880.3,-102347.5,0.02,-0.02,1.00,-4,-2,-4,87,0
[15:14:01.196 29/11/2023],-139002.3,-67907.91,-102361.5,-156628.7,-80679.38,-107373.4,-135875.9,-102345.5,0.02,-0.02,1.00,-4,-2,-4,87,0
[15:14:01.200 29/11/2023],-139002,-67915.41,-102363.7,-156643.8,-80670.98,-107375.3,-135878.1,-102351.3,0.02,-0.02,1.00,-4,-2,-4,87,0
[15:14:01.204 29/11/2023],-139000,-67912.24,-102374.8,-156629.2,-80661.09,-107384.1,-135872.9,-102372.7,0.02,-0.02,1.00,-4,-2,-4,87,0
[15:14:01.208 29/11/2023],-138988.2,-67895.48,-102358.6,-156630.3,-80648.98,-107369.6,-135864.7,-102335.5,0.02,-0.02,1.00,-4,-2,-4,87,0
[15:14:01.212 29/11/2023],-138988.1,-67899.5,-102364.7,-156634.5,-80674.41,-107385.2,-135876.3,-102349.8,0.02,-0.02,1.00,-4,-2,-4,87,0
[15:14:01.216 29/11/2023],-138981.8,-67899.91,-102362.2,-156640.2,-80664.41,-107388.5,-135861.1,-102353.1,0.02,-0.02,1.00,-4,-2,-4,87,0
[15:14:01.220 29/11/2023],-138979.5,-67882.88,-102372.9,-156632.5,-80642.55,-107372.5,-135862.7,-102357,0.02,-0.02,1.00,-4,-2,-4,87,0
[15:14:01.224 29/11/2023],-138990.7,-67891.95,-102383.6,-156633.1,-80651.26,-107379.3,-135868.8,-102354.3,0.03,0.00,1.02,-4,-2,-4,86,0
[15:14:01.228 29/11/2023],-138978.1,-67898.07,-102375,-156624.4,-80685.28,-107384,-135867.4,-102353.5,0.03,0.00,1.02,-4,-2,-4,86,0
[15:14:01.232 29/11/2023],-138967.9,-67889.13,-102383.8,-156628.9,-80659.48,-107373.7,-135861.4,-102345,0.03,0.00,1.02,-4,-2,-4,86,0
[15:14:01.236 29/11/2023],-138961,-67884.13,-102391.3,-156635.8,-80654.34,-107368.9,-135857.6,-102348.5,0.03,0.00,1.02,-4,-2,-4,86,0
[15:14:01.240 29/11/2023],-138974.6,-67903.52,-102401.2,-156647.1,-80667.31,-107394.5,-135859.3,-102365.3,0.03,0.00,1.02,-4,-2,-4,86,0
[15:14:01.244 29/11/2023],-138983.8,-67915.05,-102388.9,-156660.9,-80657.07,-107394.1,-135860.8,-102372.3,0.03,0.00,1.02,-4,-2,-4,86,0
[15:14:01.248 29/11/2023],-138971.7,-67905.09,-102371.5,-156647,-80657.88,-107391,-135857.1,-102363.1,0.03,0.00,1.02,-4,-2,-4,86,0
[15:14:01.252 29/11/2023],-138968.5,-67892.66,-102381.9,-156636,-80654.03,-107391.9,-135868,-102358.5,0.03,0.00,1.02,-4,-2,-4,86,0
[15:14:01.256 29/11/2023],-138979.2,-67900.98,-102398.4,-156662.8,-80662.26,-107402.8,-135868.9,-102366.7,0.03,0.00,1.02,-4,-2,-4,86,0
[15:14:01.260 29/11/2023],-138989.9,-67913.98,-102395.4,-156678.4,-80675.8,-107412.2,-135872.9,-102375.7,0.05,0.00,1.02,-4,-2,-4,86,0
[15:14:01.264 29/11/2023],-138982.5,-67913.54,-102391.6,-156668.9,-80653.45,-107409.6,-135858.4,-102382.2,0.05,0.00,1.02,-4,-2,-4,86,0
[15:14:01.268 29/11/2023],-138980,-67901.55,-102400,-156671.3,-80654.08,-107412.6,-135854.3,-102391.1,0.05,0.00,1.02,-4,-2,-4,86,0
[15:14:01.272 29/11/2023],-138979.1,-67910.09,-102403.7,-156672.6,-80670.66,-107423.6,-135865.8,-102384.4,0.05,0.00,1.02,-4,-2,-4,86,0
[15:14:01.276 29/11/2023],-138978,-67907.19,-102410.7,-156672.8,-80677.23,-107438,-135859.5,-102379.1,0.05,0.00,1.02,-4,-2,-4,86,0
[15:14:01.280 29/11/2023],-138962.4,-67885.38,-102410.9,-156656.1,-80653,-107420.8,-135838.9,-102384.7,0.05,0.00,1.02,-4,-2,-4,86,0
[15:14:01.284 29/11/2023],-138957.4,-67900.66,-102400.9,-156648.5,-80639.23,-107401.7,-135848.1,-102372.3,0.05,0.00,1.02,-4,-2,-4,86,0
[15:14:01.288 29/11/2023],-138987.2,-67947.02,-102427.9,-156682,-80643.17,-107429.2,-135877.6,-102408.6,0.05,0.00,1.02,-4,-2,-4,86,0
[15:14:01.292 29/11/2023],-138995.8,-67948.59,-102420.8,-156694.9,-80647.05,-107440.3,-135881.6,-102424.9,0.05,0.00,1.02,-4,-2,-4,86,0
[15:14:01.296 29/11/2023],-138985.3,-67926.14,-102409.5,-156677.2,-80664.58,-107435.1,-135866.7,-102405,0.03,0.00,1.02,-4,-2,-4,86,0
[15:14:01.300 29/11/2023],-138968.6,-67893.73,-102400.7,-156654.8,-80663.73,-107419.2,-135855.7,-102390.9,0.03,0.00,1.02,-4,-2,-4,86,0
[15:14:01.304 29/11/2023],-138973,-67910.37,-102420.7,-156679.2,-80655.06,-107428.7,-135858.9,-102409.7,0.03,0.00,1.02,-4,-2,-4,86,0
[15:14:01.308 29/11/2023],-138991.8,-67930.34,-102437.6,-156695.1,-80653,-107449.3,-135857.5,-102411,0.03,0.00,1.02,-4,-2,-4,86,0
[15:14:01.312 29/11/2023],-138994.1,-67918.45,-102439.3,-156689.3,-80655.82,-107441.1,-135851.8,-102410.8,0.03,0.00,1.02,-4,-2,-4,86,0
[15:14:01.316 29/11/2023],-138967.6,-67890.02,-102398.1,-156652.3,-80638.3,-107413.5,-135860.3,-102400.7,0.03,0.00,1.02,-4,-2,-4,86,0
[15:14:01.320 29/11/2023],-138973,-67904.55,-102427.9,-156679.5,-80668.6,-107437.6,-135855.5,-102390.7,0.03,0.00,1.02,-4,-2,-4,86,0
[15:14:01.324 29/11/2023],-138986.8,-67902.54,-102456,-156679.5,-80660.38,-107460.7,-135856.5,-102420.7,0.03,0.00,1.02,-4,-2,-4,86,0
[15:14:01.328 29/11/2023],-138989.6,-67905.09,-102436.6,-156690,-80653.85,-107453.6,-135855.2,-102415.8,0.03,0.00,1.02,-4,-2,-4,86,0
[15:14:01.332 29/11/2023],-138970.6,-67883.23,-102418.2,-156663,-80626.49,-107420.4,-135847.7,-102393.2,0.02,0.00,1.02,-4,-2,-4,86,0
[15:14:01.336 29/11/2023],-138966.5,-67890.47,-102434.9,-156671.1,-80639.33,-107447.7,-135852.7,-102398.3,0.02,0.00,1.02,-4,-2,-4,86,0
[15:14:01.340 29/11/2023],-138985.7,-67907.37,-102460,-156685.8,-80657.92,-107474.4,-135864.7,-102429.4,0.02,0.00,1.02,-4,-2,-4,86,0
[15:14:01.344 29/11/2023],-139003.2,-67920.65,-102460.7,-156707.4,-80667.84,-107474.7,-135872,-102433,0.02,0.00,1.02,-4,-2,-4,86,0
[15:14:01.348 29/11/2023],-138997.5,-67908.22,-102459.8,-156701.8,-80648.04,-107469.1,-135864.2,-102426.9,0.02,0.00,1.02,-4,-2,-4,86,0
[15:14:01.352 29/11/2023],-139011,-67918.19,-102489.5,-156702,-80649.47,-107481.4,-135858.6,-102448.6,0.02,0.00,1.02,-4,-2,-4,86,0
[15:14:01.356 29/11/2023],-139002.1,-67913.49,-102466,-156697.2,-80665.84,-107466.9,-135865.9,-102432.2,0.02,0.00,1.02,-4,-2,-4,86,0
[15:14:01.360 29/11/2023],-138994.7,-67910.45,-102460.1,-156709.3,-80655.69,-107469.1,-135863.2,-102420.6,0.02,0.00,1.02,-4,-2,-4,86,0
[15:14:01.364 29/11/2023],-138987.2,-67900.35,-102472.8,-156714,-80644.64,-107476.8,-135851.4,-102437,0.02,0.00,1.02,-4,-2,-4,86,0
[15:14:01.368 29/11/2023],-139011,-67925.12,-102490.7,-156722,-80646.92,-107508.4,-135866.5,-102460.3,0.05,0.00,1.02,-4,-2,-4,86,0
[15:14:01.372 29/11/2023],-139024.3,-67933.25,-102501.3,-156735.8,-80668.6,-107518.3,-135884,-102458.1,0.05,0.00,1.02,-4,-2,-4,86,0
[15:14:01.376 29/11/2023],-139018.5,-67925.25,-102512.3,-156741.6,-80655.24,-107518,-135873.4,-102448.9,0.05,0.00,1.02,-4,-2,-4,86,0
[15:14:01.380 29/11/2023],-138995.8,-67904.69,-102501.1,-156727.8,-80646.79,-107510.9,-135855.1,-102453.6,0.03,0.00,1.02,-4,-2,-4,86,0
[15:14:01.384 29/11/2023],-139013.3,-67920.87,-102520.8,-156748.6,-80652.73,-107527.8,-135861.3,-102468.1,0.03,0.00,1.02,-4,-2,-4,86,0
[15:14:01.388 29/11/2023],-139017.8,-67940.31,-102529.1,-156748.2,-80647.41,-107530,-135861.1,-102460.5,0.03,0.00,1.02,-4,-2,-4,86,0
[15:14:01.392 29/11/2023],-139005.3,-67944.56,-102511.3,-156740.2,-80629.84,-107524,-135855.8,-102466.7,0.03,0.00,1.02,-4,-2,-4,86,0
[15:14:01.396 29/11/2023],-138997.3,-67924.36,-102501.1,-156728.9,-80641.11,-107514.7,-135846.2,-102459.3,0.03,0.00,1.02,-4,-2,-4,86,0
[15:14:01.400 29/11/2023],-139013,-67931.73,-102528.3,-156751.7,-80633.2,-107522.4,-135856,-102476.5,0.03,0.00,1.02,-4,-2,-4,86,0
[15:14:01.404 29/11/2023],-139011,-67925.12,-102490.7,-156722,-80646.92,-107508.4,-135866.5,-102460.3,0.03,0.00,1.02,-4,-2,-4,86,0
[15:14:01.408 29/11/2023],-139024.3,-67933.25,-102501.3,-156735.8,-80668.6,-107518.3,-135884,-102458.1,0.03,0.00,1.02,-4,-2,-4,86,0
[15:14:01.412 29/11/2023],-139018.5,-67925.25,-102512.3,-156741.6,-80655.24,-107518,-135873.4,-102448.9,0.03,0.00,1.02,-4,-2,-4,86,0
[15:14:01.416 29/11/2023],-138995.8,-67904.69,-102501.1,-156727.8,-80646.79,-107510.9,-135855.1,-102453.6,0.03,0.00,1.02,-4,-2,-4,86,0
[15:14:01.420 29/11/2023],-139013.3,-67920.87,-102520.8,-156748.6,-80652.73,-107527.8,-135861.3,-102468.1,0.03,0.00,1.02,-4,-2,-4,86,0
[15:14:01.424 29/11/2023],-139017.8,-67940.31,-102529.1,-156748.2,-80647.41,-107530,-135861.1,-102460.5,0.03,0.00,1.02,-4,-2,-4,86,0
[15:14:01.428 29/11/2023],-139005.3,-67944.56,-102511.3,-156740.2,-80629.84,-107524,-135855.8,-102466.7,0.03,0.00,1.02,-4,-2,-4,86,0
[15:14:01.432 29/11/2023],-138997.3,-67924.36,-102501.1,-156728.9,-80641.11,-107514.7,-135846.2,-102459.3,0.03,0.00,1.02,-4,-2,-4,86,0
[15:14:01.436 29/11/2023],-139013,-67931.73,-102528.3,-156751.7,-80633.2,-107522.4,-135856,-102476.5,0.03,0.00,1.02,-4,-2,-4,86,0
[15:14:01.440 29/11/2023],-139011,-67919.53,-102522.6,-156750.7,-80642.14,-107524.9,-135852.5,-102470.8,0.02,0.00,1.00,-4,-2,-4,86,0
[15:14:01.444 29/11/2023],-139012.8,-67933.3,-102522.1,-156756,-80655.28,-107529.7,-135859.4,-102467.3,0.02,0.00,1.00,-4,-2,-4,86,0
[15:14:01.448 29/11/2023],-139002,-67907.77,-102531,-156732.3,-80632.17,-107538.4,-135847.7,-102477.6,0.02,0.00,1.00,-4,-2,-4,86,0
[15:14:01.452 29/11/2023],-139003.2,-67912.73,-102543.2,-156752.1,-80629.58,-107521.8,-135843.4,-102454.9,0.02,0.00,1.00,-4,-2,-4,86,0
[15:14:01.456 29/11/2023],-139011.8,-67920.24,-102534.8,-156760.6,-80668.43,-107540.3,-135866.9,-102471,0.02,0.00,1.00,-4,-2,-4,86,0
[15:14:01.460 29/11/2023],-139016.5,-67915.23,-102525.6,-156761.6,-80634.18,-107557.4,-135863.7,-102479.5,0.02,0.00,1.00,-4,-2,-4,86,0
[15:14:01.464 29/11/2023],-139003.1,-67903.21,-102535.3,-156754.9,-80628.2,-107550.7,-135857.3,-102474.2,0.02,0.00,1.00,-4,-2,-4,86,0
[15:14:01.468 29/11/2023],-138997.7,-67915.05,-102568.8,-156775,-80618.76,-107559,-135843.3,-102480.2,0.02,0.00,1.00,-4,-2,-4,86,0
[15:14:01.472 29/11/2023],-138998.1,-67916.4,-102567.5,-156769.7,-80610.49,-107563,-135844.7,-102491.1,0.05,0.00,1.00,-4,-2,-4,86,0
[15:14:01.476 29/11/2023],-139007.3,-67915.37,-102549.4,-156747.4,-80643.13,-107548.5,-135855.2,-102479.7,0.05,0.00,1.00,-4,-2,-4,86,0
[15:14:01.480 29/11/2023],-138995.3,-67916.31,-102551.6,-156758.9,-80628.51,-107553.1,-135851,-102485.4,0.05,0.00,1.00,-4,-2,-4,86,0
[15:14:01.484 29/11/2023],-138983.3,-67901.11,-102547.6,-156761.6,-80621.22,-107541.5,-135835.9,-102462.9,0.05,0.00,1.00,-4,-2,-4,86,0
[15:14:01.488 29/11/2023],-138998.9,-67914.79,-102558.6,-156755.8,-80630.79,-107544.4,-135846.2,-102482.9,0.05,0.00,1.00,-4,-2,-4,86,0
[15:14:01.492 29/11/2023],-139012.5,-67916.22,-102578.4,-156753.2,-80637.09,-107557.8,-135849.4,-102488.2,0.05,0.00,1.00,-4,-2,-4,86,0
[15:14:01.496 29/11/2023],-139001.9,-67921.59,-102580.5,-156763.9,-80628.41,-107563.4,-135845.7,-102488.7,0.05,0.00,1.00,-4,-2,-4,86,0
[15:14:01.500 29/11/2023],-138981.6,-67904.69,-102552.5,-156761.7,-80613.48,-107549.8,-135840.2,-102475,0.05,0.00,1.00,-4,-2,-4,86,0
[15:14:01.504 29/11/2023],-138997.7,-67915.05,-102568.8,-156775,-80618.76,-107559,-135843.3,-102480.2,0.05,0.00,1.00,-4,-2,-4,86,0
[15:14:01.508 29/11/2023],-138998.1,-67916.4,-102567.5,-156769.7,-80610.49,-107563,-135844.7,-102491.1,0.05,0.00,1.00,-4,-2,-4,86,0
[15:14:01.512 29/11/2023],-138995.5,-67914.25,-102574.4,-156765.8,-80602.17,-107566.4,-135841.6,-102487.3,0.03,-0.02,1.00,-4,-2,-4,86,0
[15:14:01.516 29/11/2023],-138993.3,-67908.89,-102591,-156765.8,-80586.84,-107560.7,-135833.7,-102486.9,0.03,-0.02,1.00,-4,-2,-4,86,0
[15:14:01.520 29/11/2023],-138994.6,-67915.1,-102596.4,-156795.4,-80612.01,-107579.9,-135829.6,-102501.8,0.03,-0.02,1.00,-4,-2,-4,86,0
[15:14:01.524 29/11/2023],-138998.4,-67907.81,-102587.4,-156791.3,-80623.19,-107599.4,-135847.1,-102503,0.03,-0.02,1.00,-4,-2,-4,86,0
[15:14:01.528 29/11/2023],-139007.2,-67913.27,-102596.5,-156780.5,-80607.05,-107606.2,-135853.5,-102492,0.03,-0.02,1.00,-4,-2,-4,86,0
[15:14:01.532 29/11/2023],-139004.5,-67922.52,-102593.5,-156785.7,-80608.57,-107595.1,-135858.6,-102509.1,0.03,-0.02,1.00,-4,-2,-4,86,0
[15:14:01.536 29/11/2023],-138992,-67916.17,-102623.3,-156788.6,-80609.15,-107607.5,-135844.6,-102522.3,0.03,-0.02,1.00,-4,-2,-4,86,0
[15:14:01.540 29/11/2023],-138994.2,-67934.37,-102628.9,-156800.6,-80598.69,-107616.5,-135839.9,-102530.2,0.03,-0.02,1.00,-4,-2,-4,86,0
[15:14:01.544 29/11/2023],-138985,-67916.27,-102630.8,-156783.7,-80602.89,-107613.4,-135839.5,-102517.3,0.03,-0.02,1.00,-4,-2,-4,86,0
[15:14:01.548 29/11/2023],-138982.7,-67912.24,-102627.5,-156791.1,-80574.99,-107602.8,-135838.2,-102516.5,0.02,0.00,1.02,-4,-2,-4,86,0
[15:14:01.552 29/11/2023],-138998,-67940.27,-102650.8,-156815.9,-80581.43,-107613.5,-135841.1,-102526.3,0.02,0.00,1.02,-4,-2,-4,86,0
[15:14:01.556 29/11/2023],-138999.3,-67929.23,-102652.9,-156803.1,-80576.12,-107625.5,-135845.1,-102538.8,0.02,0.00,1.02,-4,-2,-4,86,0
[15:14:01.560 29/11/2023],-138997.6,-67937.09,-102659.8,-156811.6,-80608.16,-107647.5,-135847.4,-102529.2,0.02,0.00,1.02,-4,-2,-4,86,0
[15:14:01.564 29/11/2023],-138989.9,-67939.65,-102670.2,-156797.4,-80594.09,-107648.8,-135843.5,-102514.4,0.02,0.00,1.02,-4,-2,-4,86,0
[15:14:01.568 29/11/2023],-138999.5,-67947.52,-102674.5,-156808.3,-80591.63,-107659.3,-135853.7,-102552.7,0.02,0.00,1.02,-4,-2,-4,86,0
[15:14:01.572 29/11/2023],-138999.9,-67937.01,-102656.7,-156801.1,-80603.34,-107653.5,-135852.3,-102549,0.02,0.00,1.02,-4,-2,-4,86,0
[15:14:01.576 29/11/2023],-138998.8,-67930.84,-102655.3,-156798.6,-80590.73,-107650.7,-135844.9,-102537.7,0.02,0.00,1.02,-4,-2,-4,86,0
[15:14:01.580 29/11/2023],-138986.4,-67922.79,-102645.6,-156794,-80577.55,-107645.6,-135829.2,-102523,0.02,0.00,1.02,-4,-2,-4,86,0
[15:14:01.584 29/11/2023],-138982.7,-67912.24,-102627.5,-156791.1,-80574.99,-107602.8,-135838.2,-102516.5,0.02,0.00,1.02,-4,-2,-4,86,0
[15:14:01.588 29/11/2023],-138989.7,-67929.99,-102653.1,-156813.3,-80584.61,-107654.4,-135836.1,-102537.9,0.02,0.00,1.02,-4,-2,-4,86,0
[15:14:01.592 29/11/2023],-138984.8,-67936.07,-102663.1,-156805.4,-80584.25,-107658.6,-135838.6,-102534.4,0.02,0.00,1.02,-4,-2,-4,86,0
[15:14:01.596 29/11/2023],-138975,-67935.98,-102663.6,-156791.7,-80590.15,-107653.3,-135833.9,-102539.9,0.02,0.00,1.02,-4,-2,-4,86,0
[15:14:01.600 29/11/2023],-138979,-67937.14,-102654.5,-156794.8,-80592.52,-107657.3,-135824.7,-102534.1,0.02,0.00,1.02,-4,-2,-4,86,0
[15:14:01.604 29/11/2023],-138997.4,-67945.45,-102669.2,-156810.3,-80601.28,-107666.2,-135838,-102551.5,0.02,0.00,1.02,-4,-2,-4,86,0
[15:14:01.608 29/11/2023],-139003.6,-67960.74,-102690.7,-156830,-80579.91,-107667,-135847.1,-102549.4,0.02,0.00,1.02,-4,-2,-4,86,0
[15:14:01.612 29/11/2023],-138986,-67946.26,-102690,-156821.6,-80566.28,-107657.3,-135821.9,-102545,0.02,0.00,1.02,-4,-2,-4,86,0
[15:14:01.616 29/11/2023],-138982.7,-67939.2,-102675.7,-156824.9,-80580,-107663,-135826.5,-102529.1,0.02,0.00,1.02,-4,-2,-4,86,0
[15:14:01.620 29/11/2023],-138992.3,-67930.34,-102665,-156813.4,-80580.45,-107656.8,-135832.8,-102522.9,0.03,0.00,1.02,-4,-2,-4,86,0
[15:14:01.624 29/11/2023],-138989.7,-67929.99,-102653.1,-156813.3,-80584.61,-107654.4,-135836.1,-102537.9,0.03,0.00,1.02,-4,-2,-4,86,0
[15:14:01.628 29/11/2023],-138984.8,-67936.07,-102663.1,-156805.4,-80584.25,-107658.6,-135838.6,-102534.4,0.03,0.00,1.02,-4,-2,-4,86,0
[15:14:01.632 29/11/2023],-138975,-67935.98,-102663.6,-156791.7,-80590.15,-107653.3,-135833.9,-102539.9,0.03,0.00,1.02,-4,-2,-4,86,0
[15:14:01.636 29/11/2023],-138979,-67937.14,-102654.5,-156794.8,-80592.52,-107657.3,-135824.7,-102534.1,0.03,0.00,1.02,-4,-2,-4,86,0
[15:14:01.640 29/11/2023],-138997.4,-67945.45,-102669.2,-156810.3,-80601.28,-107666.2,-135838,-102551.5,0.03,0.00,1.02,-4,-2,-4,86,0
[15:14:01.644 29/11/2023],-139003.6,-67960.74,-102690.7,-156830,-80579.91,-107667,-135847.1,-102549.4,0.03,0.00,1.02,-4,-2,-4,86,0
[15:14:01.648 29/11/2023],-139002.7,-67965.08,-102721.9,-156843,-80572.9,-107687.9,-135836.3,-102557.4,0.03,0.00,1.02,-4,-2,-4,86,0
[15:14:01.652 29/11/2023],-139013.7,-67981.71,-102725.5,-156841.1,-80608.03,-107698.3,-135851.2,-102581.5,0.03,0.00,1.02,-4,-2,-4,86,0
[15:14:01.656 29/11/2023],-138992.8,-67933.92,-102690.6,-156809,-80593.64,-107674.4,-135834.9,-102546.9,0.05,0.00,1.02,-4,-2,-4,86,0
[15:14:01.660 29/11/2023],-138995.5,-67941.43,-102693.4,-156813.9,-80593.59,-107677.9,-135843.4,-102551.2,0.05,0.00,1.02,-4,-2,-4,86,0
[15:14:01.664 29/11/2023],-138985,-67940.8,-102695.9,-156817.6,-80550.99,-107668.9,-135816,-102541.8,0.05,0.00,1.02,-4,-2,-4,86,0
[15:14:01.668 29/11/2023],-138989.8,-67952.52,-102692.9,-156823.4,-80558.73,-107665.1,-135822.6,-102536,0.05,0.00,1.02,-4,-2,-4,86,0
[15:14:01.672 29/11/2023],-139002.6,-67955.11,-102705.9,-156820.1,-80603.38,-107679.4,-135845,-102562.8,0.05,0.00,1.02,-4,-2,-4,86,0
[15:14:01.676 29/11/2023],-139007.9,-67965.17,-102711.1,-156839.8,-80610.94,-107703.5,-135856.5,-102571.3,0.05,0.00,1.02,-4,-2,-4,86,0
[15:14:01.680 29/11/2023],-139007.5,-67963.65,-102719.1,-156862.3,-80594.98,-107700.8,-135859.3,-102563.6,0.05,0.00,1.02,-4,-2,-4,86,0
[15:14:01.684 29/11/2023],-139002.7,-67965.08,-102721.9,-156843,-80572.9,-107687.9,-135836.3,-102557.4,0.05,0.00,1.02,-4,-2,-4,86,0
[15:14:01.688 29/11/2023],-139013.7,-67981.71,-102725.5,-156841.1,-80608.03,-107698.3,-135851.2,-102581.5,0.05,0.00,1.02,-4,-2,-4,86,0
[15:14:01.692 29/11/2023],-139019,-67986.63,-102724.3,-156850.2,-80614.78,-107710.4,-135859,-102575.2,0.03,0.00,1.02,-4,-2,-4,86,0
[15:14:01.696 29/11/2023],-139024.6,-67980.46,-102735.1,-156861.7,-80597.66,-107713.8,-135865.3,-102572.1,0.03,0.00,1.02,-4,-2,-4,86,0
[15:14:01.700 29/11/2023],-138994.9,-67962.09,-102727,-156850,-80566.68,-107696,-135843.7,-102555.6,0.03,0.00,1.02,-4,-2,-4,86,0
[15:14:01.704 29/11/2023],-139006.6,-67977.24,-102738,-156850.6,-80573.88,-107698.9,-135845.8,-102582.5,0.03,0.00,1.02,-4,-2,-4,86,0
[15:14:01.708 29/11/2023],-139026.5,-67997.23,-102760.8,-156863.1,-80587.52,-107725.2,-135856,-102594.8,0.03,0.00,1.02,-4,-2,-4,86,0
[15:14:01.712 29/11/2023],-139006,-67985.78,-102763.4,-156868.4,-80584.48,-107713.8,-135837.9,-102581,0.03,0.00,1.02,-4,-2,-4,86,0
[15:14:01.716 29/11/2023],-138991,-67974.65,-102759.5,-156869.4,-80576.56,-107712.1,-135837.4,-102581.3,0.03,0.00,1.02,-4,-2,-4,86,0
[15:14:01.720 29/11/2023],-139009.1,-67985.24,-102770.4,-156873.3,-80572.05,-107722.7,-135842.1,-102600.6,0.03,0.00,1.02,-4,-2,-4,86,0
[15:14:01.724 29/11/2023],-139019.2,-68012.47,-102776,-156891.2,-80606.38,-107731.6,-135856,-102608.7,0.03,0.00,1.02,-4,-2,-4,86,0
[15:14:01.728 29/11/2023],-139021.9,-68005.27,-102793,-156878.4,-80609.06,-107741.3,-135853.4,-102605.8,0.05,0.00,1.00,-4,-2,-4,86,0
[15:14:01.732 29/11/2023],-139004.8,-67989.45,-102782.8,-156880.4,-80574.86,-107726.6,-135847.9,-102602.5,0.05,0.00,1.00,-4,-2,-4,86,0
[15:14:01.736 29/11/2023],-138994.4,-67999.5,-102775.9,-156873.8,-80580.31,-107727.2,-135847.2,-102602.5,0.05,0.00,1.00,-4,-2,-4,86,0
[15:14:01.740 29/11/2023],-139003.4,-67998.2,-102763,-156853.2,-80580.59,-107732.1,-135844.4,-102590.3,0.05,0.00,1.00,-4,-2,-4,86,0
[15:14:01.744 29/11/2023],-139007.5,-67981.3,-102773.4,-156863.5,-80561.95,-107734.5,-135845.4,-102593.2,0.05,0.00,1.00,-4,-2,-4,86,0
[15:14:01.748 29/11/2023],-138997,-67993.24,-102778.6,-156872.9,-80584.12,-107739.9,-135831.6,-102597.7,0.05,0.00,1.00,-4,-2,-4,86,0
[15:14:01.752 29/11/2023],-139003.3,-68010.37,-102795,-156903.5,-80580.59,-107745.6,-135841.7,-102609.9,0.05,0.00,1.00,-4,-2,-4,86,0
[15:14:01.756 29/11/2023],-139005,-67993.42,-102793.9,-156874,-80593.77,-107736,-135845.7,-102609.1,0.05,0.00,1.00,-4,-2,-4,86,0
[15:14:01.760 29/11/2023],-139012.3,-68013.59,-102818.9,-156905.6,-80585.32,-107754.9,-135842.5,-102622.6,0.05,0.00,1.00,-4,-2,-4,86,0
[15:14:01.764 29/11/2023],-138992.4,-67998.7,-102794.8,-156883.6,-80577.19,-107741.6,-135841.4,-102607.1,0.03,0.00,1.02,-4,-2,-4,86,0
[15:14:01.768 29/11/2023],-139003,-67999.41,-102811.7,-156878,-80578.57,-107742,-135845.8,-102621.3,0.03,0.00,1.02,-4,-2,-4,86,0
[15:14:01.772 29/11/2023],-139009.9,-68005.94,-102810.6,-156896.5,-80606.16,-107753.9,-135860.3,-102625,0.03,0.00,1.02,-4,-2,-4,86,0
[15:14:01.776 29/11/2023],-139011.5,-68017.25,-102824.8,-156917.5,-80609.95,-107763.8,-135865.8,-102626.4,0.03,0.00,1.02,-4,-2,-4,86,0
[15:14:01.780 29/11/2023],-139005.1,-68002.01,-102820.2,-156892.5,-80592.03,-107758.3,-135853.2,-102625.5,0.03,0.00,1.02,-4,-2,-4,86,0
[15:14:01.784 29/11/2023],-139010.4,-68010.86,-102828,-156906.4,-80586.66,-107764.1,-135855.4,-102630.6,0.03,0.00,1.02,-4,-2,-4,86,0
[15:14:01.788 29/11/2023],-139016.5,-68023.06,-102835.3,-156916.1,-80571.87,-107782.4,-135863.7,-102645.2,0.03,0.00,1.02,-4,-2,-4,86,0
[15:14:01.792 29/11/2023],-139009,-68014.97,-102825.9,-156898.9,-80594.94,-107768.7,-135851,-102639,0.03,0.00,1.02,-4,-2,-4,86,0
[15:14:01.796 29/11/2023],-139006.4,-68006.34,-102821,-156914.3,-80574.05,-107754.1,-135842.5,-102625.4,0.03,0.00,1.02,-4,-2,-4,86,0
[15:14:01.800 29/11/2023],-138992.4,-67998.7,-102794.8,-156883.6,-80577.19,-107741.6,-135841.4,-102607.1,0.03,0.00,1.02,-4,-2,-4,86,0
[15:14:01.804 29/11/2023],-139003,-67999.41,-102811.7,-156878,-80578.57,-107742,-135845.8,-102621.3,0.03,0.00,1.02,-4,-2,-4,86,0
[15:14:01.808 29/11/2023],-139009.9,-68005.94,-102810.6,-156896.5,-80606.16,-107753.9,-135860.3,-102625,0.03,0.00,1.02,-4,-2,-4,86,0
[15:14:01.812 29/11/2023],-139011.5,-68017.25,-102824.8,-156917.5,-80609.95,-107763.8,-135865.8,-102626.4,0.03,0.00,1.02,-4,-2,-4,86,0
[15:14:01.816 29/11/2023],-139005.1,-68002.01,-102820.2,-156892.5,-80592.03,-107758.3,-135853.2,-102625.5,0.03,0.00,1.02,-4,-2,-4,86,0
[15:14:01.820 29/11/2023],-139010.4,-68010.86,-102828,-156906.4,-80586.66,-107764.1,-135855.4,-102630.6,0.03,0.00,1.02,-4,-2,-4,86,0
[15:14:01.824 29/11/2023],-139016.5,-68023.06,-102835.3,-156916.1,-80571.87,-107782.4,-135863.7,-102645.2,0.03,0.00,1.02,-4,-2,-4,86,0
[15:14:01.828 29/11/2023],-139009,-68014.97,-102825.9,-156898.9,-80594.94,-107768.7,-135851,-102639,0.03,0.00,1.02,-4,-2,-4,86,0
[15:14:01.832 29/11/2023],-139006.4,-68006.34,-102821,-156914.3,-80574.05,-107754.1,-135842.5,-102625.4,0.03,0.00,1.02,-4,-2,-4,86,0
[15:14:01.836 29/11/2023],-139009.8,-68014.84,-102825.9,-156906.6,-80597.13,-107771.1,-135853.9,-102639.9,0.03,0.00,1.02,-4,-2,-4,86,0
[15:14:01.840 29/11/2023],-139019.9,-68032.54,-102840.7,-156907.9,-80593.05,-107799,-135864.6,-102662.8,0.03,0.00,1.02,-4,-2,-4,86,0
[15:14:01.844 29/11/2023],-139025.4,-68029.19,-102839.8,-156916.7,-80612.1,-107787.4,-135861.2,-102654.2,0.03,0.00,1.02,-4,-2,-4,86,0
[15:14:01.848 29/11/2023],-139015.2,-68021.41,-102853,-156941.8,-80600.3,-107777.3,-135849.4,-102641,0.03,0.00,1.02,-4,-2,-4,86,0
[15:14:01.852 29/11/2023],-139014.9,-68017.3,-102844.4,-156920.5,-80591.63,-107771.2,-135857.7,-102647.7,0.03,0.00,1.02,-4,-2,-4,86,0
[15:14:01.856 29/11/2023],-139025.8,-68020.96,-102875.7,-156922.9,-80591.45,-107791,-135855.4,-102656.8,0.03,0.00,1.02,-4,-2,-4,86,0
[15:14:01.860 29/11/2023],-139014,-68029.86,-102857.4,-156924.7,-80588.5,-107788.2,-135859.5,-102651.5,0.03,0.00,1.02,-4,-2,-4,86,0
[15:14:01.864 29/11/2023],-139015.1,-68036.2,-102872.6,-156932.8,-80567.76,-107814.3,-135846.6,-102670.4,0.03,0.00,1.02,-4,-2,-4,86,0
[15:14:01.868 29/11/2023],-139010.5,-68032.9,-102877.7,-156924.6,-80587.2,-107810.1,-135851.5,-102667.8,0.03,0.00,1.02,-4,-2,-4,86,0
[15:14:01.872 29/11/2023],-139022.1,-68039.55,-102860.7,-156939.4,-80589.79,-107811,-135869.2,-102679.4,0.03,0.00,1.02,-4,-2,-4,86,0
[15:14:01.876 29/11/2023],-139029.5,-68044.43,-102856.9,-156950,-80629.98,-107817.7,-135875.9,-102668.7,0.03,0.00,1.02,-4,-2,-4,86,0
[15:14:01.880 29/11/2023],-139022.8,-68034.55,-102866.6,-156935.7,-80611.02,-107803.1,-135868.1,-102668.1,0.03,0.00,1.02,-4,-2,-4,86,0
[15:14:01.884 29/11/2023],-139018.6,-68024.8,-102876.7,-156929.9,-80593.99,-107812.4,-135858.5,-102665.4,0.03,0.00,1.02,-4,-2,-4,86,0
[15:14:01.888 29/11/2023],-139021.3,-68036.65,-102883.1,-156940.2,-80601.95,-107816.2,-135865.7,-102674.1,0.03,0.00,1.02,-4,-2,-4,86,0
[15:14:01.892 29/11/2023],-139026.5,-68048.99,-102874.2,-156961.4,-80598.11,-107820.1,-135864.1,-102683,0.03,0.00,1.02,-4,-2,-4,86,0
[15:14:01.896 29/11/2023],-139024,-68053.41,-102880,-156955.5,-80592.52,-107821.6,-135862.5,-102679.1,0.03,0.00,1.02,-4,-2,-4,86,0
[15:14:01.900 29/11/2023],-139015.1,-68036.2,-102872.6,-156932.8,-80567.76,-107814.3,-135846.6,-102670.4,0.03,0.00,1.02,-4,-2,-4,86,0
[15:14:01.904 29/11/2023],-139031.3,-68051.05,-102907.7,-156963,-80555.28,-107841.8,-135873.6,-102709.8,0.03,0.00,1.02,-4,-2,-4,86,0
[15:14:01.908 29/11/2023],-139012.6,-68033.43,-102879.5,-156924.3,-80591.72,-107816.6,-135862,-102657.5,0.03,-0.02,1.02,-4,-2,-4,86,0
[15:14:01.912 29/11/2023],-139018,-68043.76,-102888.4,-156954.7,-80604.05,-107817.6,-135862.1,-102688.1,0.03,-0.02,1.02,-4,-2,-4,86,0
[15:14:01.916 29/11/2023],-139000,-68029.01,-102885.7,-156937.8,-80574.91,-107824.7,-135850.5,-102679.3,0.03,-0.02,1.02,-4,-2,-4,86,0
[15:14:01.920 29/11/2023],-139008,-68039.2,-102894.6,-156951,-80584.7,-107827.4,-135856.5,-102681.3,0.03,-0.02,1.02,-4,-2,-4,86,0
[15:14:01.924 29/11/2023],-139017.1,-68040.32,-102886.2,-156955.2,-80599.8,-107828.5,-135860.6,-102688.8,0.03,-0.02,1.02,-4,-2,-4,86,0
[15:14:01.928 29/11/2023],-139028.6,-68067.67,-102921.1,-156964.3,-80594.66,-107848.4,-135879.9,-102712,0.03,-0.02,1.02,-4,-2,-4,86,0
[15:14:01.932 29/11/2023],-139010,-68056.45,-102916.8,-156948,-80585.19,-107832.2,-135855.8,-102694.5,0.03,-0.02,1.02,-4,-2,-4,86,0
[15:14:01.936 29/11/2023],-139041.5,-68084.62,-102944.6,-156998.3,-80602.04,-107880.1,-135877.5,-102727.5,0.03,-0.02,1.02,-4,-2,-4,86,0
[15:14:01.940 29/11/2023],-139046.1,-68098.25,-102955.4,-157005.2,-80602.84,-107886,-135870.3,-102741.9,0.03,-0.02,1.02,-4,-2,-4,86,0
[15:14:01.944 29/11/2023],-139028.6,-68075.81,-102933.5,-156995.3,-80578.7,-107867.9,-135878.3,-102735.1,0.05,0.00,1.02,-4,-2,-4,86,0
[15:14:01.948 29/11/2023],-139022.1,-68059.36,-102922.4,-156971,-80580.72,-107856.8,-135866.2,-102704.1,0.05,0.00,1.02,-4,-2,-4,86,0
[15:14:01.952 29/11/2023],-139027.8,-68086.27,-102942.5,-156995.1,-80584.07,-107866.9,-135863.1,-102726.6,0.05,0.00,1.02,-4,-2,-4,86,0
[15:14:01.956 29/11/2023],-139020.2,-68085.47,-102927.1,-156995.9,-80597.52,-107865.6,-135863.3,-102736.4,0.05,0.00,1.02,-4,-2,-4,86,0
[15:14:01.960 29/11/2023],-139032.5,-68084.88,-102933.8,-156990.2,-80604.63,-107866.8,-135878,-102735.6,0.05,0.00,1.02,-4,-2,-4,86,0
[15:14:01.964 29/11/2023],-139023.9,-68078.9,-102933,-156991.1,-80601.82,-107876,-135867.6,-102736,0.05,0.00,1.02,-4,-2,-4,86,0
[15:14:01.968 29/11/2023],-139033.8,-68092.89,-102969.7,-157010.3,-80616.52,-107885.3,-135872.2,-102751.5,0.05,0.00,1.02,-4,-2,-4,86,0
[15:14:01.972 29/11/2023],-139038,-68088.69,-102953,-157009.9,-80618.49,-107884.4,-135870.9,-102735.9,0.05,0.00,1.02,-4,-2,-4,86,0
[15:14:01.976 29/11/2023],-139045.5,-68085.96,-102959.1,-157005.1,-80606.83,-107890.8,-135875.3,-102743.3,0.05,0.00,1.02,-4,-2,-4,86,0
[15:14:01.980 29/11/2023],-139028.6,-68075.81,-102933.5,-156995.3,-80578.7,-107867.9,-135878.3,-102735.1,0.05,0.00,1.02,-4,-2,-4,86,0
[15:14:01.984 29/11/2023],-139022.1,-68059.36,-102922.4,-156971,-80580.72,-107856.8,-135866.2,-102704.1,0.05,0.00,1.02,-4,-2,-4,86,0
[15:14:01.988 29/11/2023],-139027.8,-68086.27,-102942.5,-156995.1,-80584.07,-107866.9,-135863.1,-102726.6,0.05,0.00,1.02,-4,-2,-4,86,0
[15:14:01.992 29/11/2023],-139020.2,-68085.47,-102927.1,-156995.9,-80597.52,-107865.6,-135863.3,-102736.4,0.05,0.00,1.02,-4,-2,-4,86,0
[15:14:01.996 29/11/2023],-139032.5,-68084.88,-102933.8,-156990.2,-80604.63,-107866.8,-135878,-102735.6,0.05,0.00,1.02,-4,-2,-4,86,0
[15:14:02.000 29/11/2023],-139023.9,-68078.9,-102933,-156991.1,-80601.82,-107876,-135867.6,-102736,0.05,0.00,1.02,-4,-2,-4,86,0
[15:14:02.004 29/11/2023],-139033.8,-68092.89,-102969.7,-157010.3,-80616.52,-107885.3,-135872.2,-102751.5,0.05,0.00,1.02,-4,-2,-4,86,0
[15:14:02.008 29/11/2023],-139038,-68088.69,-102953,-157009.9,-80618.49,-107884.4,-135870.9,-102735.9,0.05,0.00,1.02,-4,-2,-4,86,0
[15:14:02.012 29/11/2023],-139045.5,-68085.96,-102959.1,-157005.1,-80606.83,-107890.8,-135875.3,-102743.3,0.05,0.00,1.02,-4,-2,-4,86,0
[15:14:02.016 29/11/2023],-139037.5,-68087.3,-102961.5,-156998.8,-80592.56,-107877.5,-135854.3,-102736.6,0.03,0.00,1.02,-4,-2,-4,86,0
[15:14:02.020 29/11/2023],-139042.2,-68081.31,-102952.9,-157000.1,-80564.09,-107865.8,-135862.8,-102731.8,0.03,0.00,1.02,-4,-2,-4,86,0
[15:14:02.024 29/11/2023],-139039.6,-68078.45,-102937.9,-156999,-80606.16,-107881.5,-135867.8,-102739.5,0.03,0.00,1.02,-4,-2,-4,86,0
[15:14:02.028 29/11/2023],-139038,-68081.27,-102971.1,-157005.8,-80614.34,-107890.4,-135860.7,-102736.9,0.03,0.00,1.02,-4,-2,-4,86,0
[15:14:02.032 29/11/2023],-139017.6,-68045.23,-102941.3,-156976.3,-80581.16,-107873.8,-135852.9,-102734.4,0.03,0.00,1.02,-4,-2,-4,86,0
[15:14:02.036 29/11/2023],-139028.1,-68065.26,-102971.5,-156999.7,-80578.39,-107892.7,-135850,-102760.8,0.03,0.00,1.02,-4,-2,-4,86,0
[15:14:02.040 29/11/2023],-139040.6,-68094.41,-103000.1,-157032.1,-80595.42,-107911.9,-135861.6,-102783.4,0.03,0.00,1.02,-4,-2,-4,86,0
[15:14:02.044 29/11/2023],-139031.5,-68086.01,-103001.4,-157031.4,-80602.22,-107897.9,-135849.9,-102775.1,0.03,0.00,1.02,-4,-2,-4,86,0
[15:14:02.048 29/11/2023],-139025.1,-68061.73,-102994.1,-157004.8,-80573.38,-107892.4,-135845.1,-102756.7,0.03,0.00,1.02,-4,-2,-4,86,0
[15:14:02.052 29/11/2023],-139015.2,-68066.87,-102958.3,-156980.1,-80597.66,-107879,-135853,-102749.8,0.03,0.00,1.02,-4,-2,-4,86,0
[15:14:02.056 29/11/2023],-139035.8,-68076.17,-102975.9,-157015.7,-80591,-107877.4,-135863.5,-102760.8,0.03,0.00,1.02,-4,-2,-4,86,0
[15:14:02.060 29/11/2023],-139042,-68095.21,-102987.3,-157030.8,-80604.05,-107886.8,-135866.1,-102762.8,0.03,0.00,1.02,-4,-2,-4,86,0
[15:14:02.064 29/11/2023],-139034.1,-68096.69,-102987.4,-157038.5,-80587.02,-107883.4,-135856.8,-102777.8,0.03,0.00,1.02,-4,-2,-4,86,0
[15:14:02.068 29/11/2023],-139017.6,-68045.23,-102962.7,-156983.8,-80563.87,-107875.1,-135841.7,-102739.7,0.03,0.00,1.02,-4,-2,-4,86,0
[15:14:02.072 29/11/2023],-139038.4,-68082.34,-103012.1,-157041.3,-80600.21,-107913.8,-135858.5,-102785.4,0.03,0.00,1.02,-4,-2,-4,86,0
[15:14:02.076 29/11/2023],-139036,-68087.08,-103018.3,-157057.6,-80577.37,-107920.8,-135857.9,-102783.7,0.03,0.00,1.02,-4,-2,-4,86,0
[15:14:02.080 29/11/2023],-139033.7,-68093.73,-103021,-157049,-80587.83,-107918.4,-135849.3,-102786.8,0.03,0.00,1.02,-4,-2,-4,86,0
[15:14:02.084 29/11/2023],-139045.3,-68102.95,-103037.6,-157062,-80607.23,-107939.5,-135863,-102798.3,0.03,0.00,1.02,-4,-2,-4,86,0
[15:14:02.088 29/11/2023],-139044.3,-68096.24,-103041.8,-157062.8,-80587.06,-107944.7,-135854.3,-102809.5,0.05,0.00,1.02,-4,-2,-4,86,0
[15:14:02.092 29/11/2023],-139043.9,-68097.8,-103046.1,-157057.4,-80620.1,-107942.3,-135859.7,-102790.9,0.05,0.00,1.02,-4,-2,-4,86,0
[15:14:02.096 29/11/2023],-139023.8,-68078.8,-103022.8,-157030.9,-80598.91,-107921.9,-135840.1,-102767.7,0.05,0.00,1.02,-4,-2,-4,86,0
[15:14:02.100 29/11/2023],-139036.8,-68089.8,-103040.4,-157040.3,-80600.3,-107932.7,-135850.7,-102793.5,0.05,0.00,1.02,-4,-2,-4,86,0
[15:14:02.104 29/11/2023],-139045.3,-68093.78,-103044.1,-157044.2,-80595.52,-107930.8,-135859.8,-102802.6,0.05,0.00,1.02,-4,-2,-4,86,0
[15:14:02.108 29/11/2023],-139042,-68102.95,-103041.5,-157077,-80596.41,-107945.6,-135857.8,-102811,0.05,0.00,1.02,-4,-2,-4,86,0
[15:14:02.112 29/11/2023],-139022.6,-68095.8,-103048.1,-157066.2,-80585.68,-107933.1,-135847.4,-102792.3,0.05,0.00,1.02,-4,-2,-4,86,0
[15:14:02.116 29/11/2023],-139027.2,-68104.06,-103048.9,-157042,-80584.02,-107928.2,-135853.4,-102790.3,0.05,0.00,1.02,-4,-2,-4,86,0
[15:14:02.120 29/11/2023],-139044.1,-68106.16,-103058.9,-157057.7,-80608.21,-107950.9,-135859,-102804.9,0.05,0.00,1.02,-4,-2,-4,86,0
[15:14:02.124 29/11/2023],-139042.5,-68096.69,-103046.2,-157057.5,-80591.76,-107945,-135852.3,-102799.4,0.05,0.02,1.02,-4,-2,-4,86,0
[15:14:02.128 29/11/2023],-139036.1,-68098.07,-103052.1,-157053.4,-80582.23,-107946.8,-135844.3,-102793,0.05,0.02,1.02,-4,-2,-4,86,0
[15:14:02.132 29/11/2023],-139033.4,-68092.09,-103056.5,-157052.6,-80583.27,-107936.7,-135837.8,-102787.8,0.05,0.02,1.02,-4,-2,-4,86,0
[15:14:02.136 29/11/2023],-139040.4,-68091.5,-103057.8,-157061.2,-80586.04,-107944.5,-135855.3,-102805,0.05,0.02,1.02,-4,-2,-4,86,0
[15:14:02.140 29/11/2023],-139050.2,-68107.87,-103066,-157072,-80591.31,-107949.6,-135858,-102818.4,0.05,0.02,1.02,-4,-2,-4,86,0
[15:14:02.144 29/11/2023],-139032.8,-68105.41,-103062.6,-157076.3,-80566.05,-107938.6,-135843.3,-102800.7,0.05,0.02,1.02,-4,-2,-4,86,0
[15:14:02.148 29/11/2023],-139018.1,-68086.36,-103049.1,-157056.5,-80574.77,-107925.5,-135833,-102777.3,0.05,0.02,1.02,-4,-2,-4,86,0
[15:14:02.152 29/11/2023],-139032.4,-68097.98,-103066.7,-157043,-80572.09,-107940,-135842,-102800.9,0.05,0.02,1.02,-4,-2,-4,86,0
[15:14:02.156 29/11/2023],-139033.9,-68103.84,-103061.8,-157054.7,-80584.92,-107964.1,-135848.8,-102796.2,0.05,0.02,1.02,-4,-2,-4,86,0
[15:14:02.160 29/11/2023],-139042.5,-68096.69,-103046.2,-157057.5,-80591.76,-107945,-135852.3,-102799.4,0.05,0.02,1.02,-4,-2,-4,86,0
[15:14:02.164 29/11/2023],-139036.1,-68098.07,-103052.1,-157053.4,-80582.23,-107946.8,-135844.3,-102793,0.05,0.02,1.02,-4,-2,-4,86,0
[15:14:02.168 29/11/2023],-139033.4,-68092.09,-103056.5,-157052.6,-80583.27,-107936.7,-135837.8,-102787.8,0.05,0.02,1.02,-4,-2,-4,86,0
[15:14:02.172 29/11/2023],-139040.4,-68091.5,-103057.8,-157061.2,-80586.04,-107944.5,-135855.3,-102805,0.05,0.02,1.02,-4,-2,-4,86,0
[15:14:02.176 29/11/2023],-139050.2,-68107.87,-103066,-157072,-80591.31,-107949.6,-135858,-102818.4,0.05,0.02,1.02,-4,-2,-4,86,0
[15:14:02.180 29/11/2023],-139032.8,-68105.41,-103062.6,-157076.3,-80566.05,-107938.6,-135843.3,-102800.7,0.05,0.02,1.02,-4,-2,-4,86,0
[15:14:02.184 29/11/2023],-139018.1,-68086.36,-103049.1,-157056.5,-80574.77,-107925.5,-135833,-102777.3,0.05,0.02,1.02,-4,-2,-4,86,0
[15:14:02.188 29/11/2023],-139057.7,-68130.22,-103112.5,-157099.2,-80593.59,-107977,-135858,-102828.7,0.05,0.02,1.02,-4,-2,-4,86,0
[15:14:02.192 29/11/2023],-139056.9,-68128.65,-103122.3,-157100.9,-80584.02,-107976.5,-135854.5,-102836.2,0.05,0.02,1.02,-4,-2,-4,86,0
[15:14:02.196 29/11/2023],-139031.5,-68106.3,-103072.1,-157073.6,-80590.64,-107959.7,-135846.9,-102794.1,0.03,0.00,1.00,-4,-2,-4,86,0
[15:14:02.200 29/11/2023],-139032.2,-68106.03,-103080.6,-157083.4,-80593.46,-107950.5,-135846.5,-102808.1,0.03,0.00,1.00,-4,-2,-4,86,0
[15:14:02.204 29/11/2023],-139040,-68104.06,-103088.1,-157076.1,-80558.63,-107958.3,-135845.6,-102803.7,0.03,0.00,1.00,-4,-2,-4,86,0
[15:14:02.208 29/11/2023],-139057.1,-68121.72,-103085.9,-157080.9,-80587.96,-107967.5,-135848.9,-102813.1,0.03,0.00,1.00,-4,-2,-4,86,0
[15:14:02.212 29/11/2023],-139067.4,-68120.16,-103086.1,-157095.5,-80607.23,-107975.9,-135853.2,-102816.2,0.03,0.00,1.00,-4,-2,-4,86,0
[15:14:02.216 29/11/2023],-139050.8,-68096.24,-103065.4,-157065.8,-80585.1,-107953.5,-135850.8,-102800.2,0.03,0.00,1.00,-4,-2,-4,86,0
[15:14:02.220 29/11/2023],-139056,-68116.76,-103095.5,-157083.9,-80588.14,-107966,-135848.9,-102812.5,0.03,0.00,1.00,-4,-2,-4,86,0
[15:14:02.224 29/11/2023],-139067.4,-68136.92,-103103.6,-157103.1,-80593.59,-107977,-135858,-102828.7,0.03,0.00,1.00,-4,-2,-4,86,0
[15:14:02.228 29/11/2023],-139063.3,-68144.7,-103111,-157113.9,-80598.82,-107983.1,-135853.2,-102818.8,0.03,0.00,1.00,-4,-2,-4,86,0
[15:14:02.232 29/11/2023],-139052.1,-68116.85,-103093.9,-157087.9,-80587.02,-107965.6,-135844.2,-102811.3,0.05,0.00,1.02,-4,-2,-4,86,0
[15:14:02.236 29/11/2023],-139060.8,-68123.73,-103098.3,-157085.1,-80599.54,-107971.8,-135853.9,-102824.2,0.05,0.00,1.02,-4,-2,-4,86,0
[15:14:02.240 29/11/2023],-139055.8,-68119.3,-103102.2,-157085.2,-80606.38,-107976.3,-135852.1,-102825.9,0.05,0.00,1.02,-4,-2,-4,86,0
[15:14:02.244 29/11/2023],-139050.4,-68118.68,-103086.6,-157094.7,-80583.49,-107977.8,-135850.2,-102821.3,0.05,0.00,1.02,-4,-2,-4,86,0
[15:14:02.248 29/11/2023],-139058.5,-68123.24,-103102.2,-157093.6,-80574.19,-107978.7,-135851.3,-102817.4,0.05,0.00,1.02,-4,-2,-4,86,0
[15:14:02.252 29/11/2023],-139064.5,-68133.08,-103117,-157108.3,-80600.7,-107978.3,-135856.3,-102821.9,0.05,0.00,1.02,-4,-2,-4,86,0
[15:14:02.256 29/11/2023],-139057.4,-68127.18,-103102.7,-157101.7,-80594.76,-107978.2,-135852.9,-102830,0.05,0.00,1.02,-4,-2,-4,86,0
[15:14:02.260 29/11/2023],-139067.4,-68136.92,-103103.6,-157103.1,-80602.22,-107984.4,-135855.5,-102827,0.05,0.00,1.02,-4,-2,-4,86,0
[15:14:02.264 29/11/2023],-139063.3,-68144.7,-103111,-157113.9,-80598.82,-107983.1,-135853.2,-102818.8,0.05,0.00,1.02,-4,-2,-4,86,0
[15:14:02.268 29/11/2023],-139045,-68113.09,-103091.3,-157084.6,-80565.25,-107975.6,-135840.1,-102819.8,0.05,0.00,1.02,-4,-2,-4,86,0
[15:14:02.272 29/11/2023],-139066.8,-68136.7,-103113.8,-157103.3,-80573.66,-107980.5,-135849.2,-102832.7,0.05,0.00,1.02,-4,-2,-4,86,0
[15:14:02.276 29/11/2023],-139071.7,-68130.08,-103112.4,-157108.1,-80606.87,-107986,-135855.1,-102826.6,0.05,0.00,1.02,-4,-2,-4,86,0
[15:14:02.280 29/11/2023],-139071,-68133.44,-103105.5,-157100.2,-80594.62,-107994,-135857,-102841.7,0.05,0.00,1.02,-4,-2,-4,86,0
[15:14:02.284 29/11/2023],-139075.7,-68142.42,-103132,-157118.5,-80599.59,-107997.6,-135858.9,-102844.4,0.05,0.00,1.02,-4,-2,-4,86,0
[15:14:02.288 29/11/2023],-139069,-68144.97,-103141.8,-157124.6,-80573.07,-107996.7,-135856,-102836.8,0.05,0.00,1.02,-4,-2,-4,86,0
[15:14:02.292 29/11/2023],-139067,-68134.91,-103116.2,-157108.6,-80576.74,-107991.7,-135848.2,-102849.5,0.05,0.00,1.02,-4,-2,-4,86,0
[15:14:02.296 29/11/2023],-139068.3,-68136.34,-103113.7,-157119.9,-80592.97,-107996,-135850.2,-102840.7,0.05,0.00,1.02,-4,-2,-4,86,0
[15:14:02.300 29/11/2023],-139061.6,-68130.13,-103114.7,-157124.1,-80578.62,-107991.2,-135846.2,-102822.4,0.05,0.00,1.02,-4,-2,-4,86,0
[15:14:02.304 29/11/2023],-139082,-68139.91,-103131.4,-157117.3,-80597.84,-108011.8,-135868.1,-102845.9,0.05,0.00,1.00,-4,-2,-4,86,0
[15:14:02.308 29/11/2023],-139074,-68158.87,-103129.3,-157125.3,-80587.91,-108005.2,-135847,-102848.7,0.05,0.00,1.00,-4,-2,-4,86,0
[15:14:02.312 29/11/2023],-139066,-68145.02,-103118.3,-157115.2,-80578.35,-107995.1,-135843.6,-102842.4,0.05,0.00,1.00,-4,-2,-4,86,0
[15:14:02.316 29/11/2023],-139065.4,-68124.72,-103112.4,-157108.3,-80569.5,-107992.6,-135841.9,-102830.2,0.05,0.00,1.00,-4,-2,-4,86,0
[15:14:02.320 29/11/2023],-139077.6,-68146.76,-103131.7,-157132.7,-80595.91,-108007.2,-135850.3,-102849.6,0.05,0.00,1.00,-4,-2,-4,86,0
[15:14:02.324 29/11/2023],-139077.9,-68137.01,-103129.4,-157131.5,-80587.16,-108009.8,-135853.4,-102836.7,0.05,0.00,1.00,-4,-2,-4,86,0
[15:14:02.328 29/11/2023],-139086,-68139.73,-103125,-157133,-80575.17,-108005,-135857.4,-102846.5,0.05,0.00,1.00,-4,-2,-4,86,0
[15:14:02.332 29/11/2023],-139082.2,-68133.48,-103124.8,-157121.6,-80579.91,-107998.8,-135855.4,-102845.9,0.05,0.00,1.00,-4,-2,-4,86,0
[15:14:02.336 29/11/2023],-139083.1,-68146.98,-103153.1,-157129.7,-80588.81,-108017.6,-135851.8,-102851.7,0.05,0.00,1.00,-4,-2,-4,86,0
[15:14:02.340 29/11/2023],-139083.8,-68145.95,-103136.3,-157118.4,-80602.45,-108017.5,-135866.9,-102858.6,0.05,0.02,1.02,-4,-2,-4,86,0
[15:14:02.344 29/11/2023],-139087.4,-68146.71,-103130.2,-157127.8,-80584.2,-108023.6,-135867.9,-102864.7,0.05,0.02,1.02,-4,-2,-4,86,0
[15:14:02.348 29/11/2023],-139084.1,-68148.5,-103136.5,-157147.4,-80591.76,-108016.7,-135849.4,-102856.6,0.05,0.02,1.02,-4,-2,-4,86,0
[15:14:02.352 29/11/2023],-139081,-68148.77,-103130.6,-157150.5,-80579.02,-108026.4,-135845.4,-102855.3,0.05,0.02,1.02,-4,-2,-4,86,0
[15:14:02.356 29/11/2023],-139089.8,-68147.34,-103137.3,-157141.1,-80596.41,-108027.4,-135856,-102868.7,0.05,0.02,1.02,-4,-2,-4,86,0
[15:14:02.360 29/11/2023],-139102.9,-68145.82,-103139.9,-157135.3,-80591.31,-108023.8,-135867.1,-102868.2,0.05,0.02,1.02,-4,-2,-4,86,0
[15:14:02.364 29/11/2023],-139098.4,-68143.23,-103144.2,-157138,-80593.55,-108019.9,-135860.4,-102858.2,0.05,0.02,1.02,-4,-2,-4,86,0
[15:14:02.368 29/11/2023],-139085.6,-68134.73,-103141.7,-157127.4,-80588.36,-108011.5,-135857.9,-102841.4,0.05,0.02,1.02,-4,-2,-4,86,0
[15:14:02.372 29/11/2023],-139102.2,-68161.2,-103178.4,-157165.8,-80587.55,-108035.3,-135855.9,-102877.5,0.05,0.02,1.02,-4,-2,-4,86,0
[15:14:02.376 29/11/2023],-139104.2,-68151.09,-103159.2,-157154.3,-80586.53,-108036.1,-135862.3,-102876.6,0.03,0.00,1.02,-4,-2,-4,86,0
[15:14:02.380 29/11/2023],-139090.8,-68144.03,-103136.1,-157132.5,-80590.28,-108031.7,-135859.8,-102857.2,0.03,0.00,1.02,-4,-2,-4,86,0
[15:14:02.384 29/11/2023],-139087.1,-68156.5,-103141,-157138,-80581.21,-108023.9,-135848.4,-102865.8,0.03,0.00,1.02,-4,-2,-4,86,0
[15:14:02.388 29/11/2023],-139101,-68145.41,-103156.3,-157158.4,-80593.41,-108035.3,-135866.5,-102877.3,0.03,0.00,1.02,-4,-2,-4,86,0
[15:14:02.392 29/11/2023],-139112.9,-68156.55,-103155,-157164.9,-80598.11,-108057.9,-135879.5,-102886,0.03,0.00,1.02,-4,-2,-4,86,0
[15:14:02.396 29/11/2023],-139101.7,-68147.6,-103159.2,-157155,-80601.82,-108047.8,-135870.7,-102866.6,0.03,0.00,1.02,-4,-2,-4,86,0
[15:14:02.400 29/11/2023],-139096.6,-68147.52,-103158.6,-157160.8,-80600.79,-108044.5,-135865,-102869.3,0.03,0.00,1.02,-4,-2,-4,86,0
[15:14:02.404 29/11/2023],-139106.3,-68153.28,-103162,-157164.8,-80598.2,-108043.9,-135865.2,-102888.6,0.03,0.00,1.02,-4,-2,-4,86,0
[15:14:02.408 29/11/2023],-139103.3,-68151.05,-103157.9,-157153.3,-80581.92,-108036.2,-135854.2,-102872.5,0.03,0.00,1.02,-4,-2,-4,86,0
[15:14:02.412 29/11/2023],-139099.4,-68152.88,-103164.9,-157158.3,-80581.88,-108040.1,-135860.3,-102888.4,0.03,0.00,1.00,-4,-2,-4,86,0
[15:14:02.416 29/11/2023],-139081.9,-68147.88,-103140.4,-157156,-80577.32,-108024.4,-135843.9,-102872.2,0.03,0.00,1.00,-4,-2,-4,86,0
[15:14:02.420 29/11/2023],-139089,-68135.09,-103145.5,-157134.4,-80585.28,-108031,-135849.6,-102864.6,0.03,0.00,1.00,-4,-2,-4,86,0
[15:14:02.424 29/11/2023],-139106.4,-68154.31,-103161,-157159,-80589.88,-108036.4,-135864.4,-102875.5,0.03,0.00,1.00,-4,-2,-4,86,0
[15:14:02.428 29/11/2023],-139115.3,-68169.64,-103174.6,-157192.8,-80603.12,-108063.9,-135873.1,-102891.6,0.03,0.00,1.00,-4,-2,-4,86,0
[15:14:02.432 29/11/2023],-139093.2,-68148.05,-103161.5,-157153.5,-80590.59,-108049.5,-135849.2,-102892.2,0.03,0.00,1.00,-4,-2,-4,86,0
[15:14:02.436 29/11/2023],-139097.6,-68146.48,-103169.4,-157160.4,-80585.23,-108049.6,-135852.7,-102879.7,0.03,0.00,1.00,-4,-2,-4,86,0
[15:14:02.440 29/11/2023],-139110.1,-68149.26,-103172.4,-157174.4,-80582.55,-108057,-135867.9,-102888,0.03,0.00,1.00,-4,-2,-4,86,0
[15:14:02.444 29/11/2023],-139105.5,-68148.41,-103168.4,-157171.5,-80584.25,-108054.4,-135864.6,-102887.6,0.03,0.00,1.00,-4,-2,-4,86,0
[15:14:02.448 29/11/2023],-139096.5,-68141.13,-103164.8,-157166.2,-80576.6,-108045.5,-135846.3,-102879.5,0.03,0.00,1.00,-4,-2,-4,86,0
[15:14:02.452 29/11/2023],-139107.4,-68152.92,-103173.9,-157171.1,-80562.34,-108056.4,-135855.5,-102883.2,0.03,0.00,1.00,-4,-2,-4,86,0
[15:14:02.456 29/11/2023],-139115.1,-68148.55,-103178.3,-157166.6,-80595.83,-108061.7,-135861.9,-102891.5,0.03,0.00,1.00,-4,-2,-4,86,0
[15:14:02.460 29/11/2023],-139118.2,-68156.1,-103178,-157181.8,-80601.15,-108064.4,-135866.8,-102898.1,0.03,0.00,1.00,-4,-2,-4,86,0
[15:14:02.464 29/11/2023],-139111.9,-68159.05,-103175.3,-157185.1,-80571.38,-108063.5,-135856,-102899.8,0.03,0.00,1.00,-4,-2,-4,86,0
[15:14:02.468 29/11/2023],-139109.8,-68150.51,-103182.3,-157176.7,-80587.7,-108057.8,-135862.6,-102892.6,0.03,0.00,1.00,-4,-2,-4,86,0
[15:14:02.472 29/11/2023],-139122.6,-68171.16,-103195.1,-157189.6,-80585.59,-108064.7,-135875.8,-102908.1,0.03,0.00,1.00,-4,-2,-4,86,0
[15:14:02.476 29/11/2023],-139132.9,-68161.06,-103203.8,-157185.5,-80595.65,-108073.6,-135864.3,-102906.2,0.03,0.00,1.00,-4,-2,-4,86,0
[15:14:02.480 29/11/2023],-139122.4,-68159.95,-103209.9,-157186.8,-80568.16,-108069.4,-135866.5,-102912.4,0.03,0.00,1.00,-4,-2,-4,86,0
[15:14:02.484 29/11/2023],-139102.1,-68136.97,-103169.5,-157160.9,-80580.09,-108055.4,-135855.1,-102895.4,0.03,0.02,1.02,-4,-2,-4,86,0
[15:14:02.488 29/11/2023],-139122.4,-68154.45,-103181.5,-157179.7,-80586.93,-108063.6,-135869.3,-102895.6,0.03,0.02,1.02,-4,-2,-4,86,0
[15:14:02.492 29/11/2023],-139120.7,-68150.73,-103171.7,-157182.7,-80592.48,-108060.8,-135865.9,-102889.1,0.03,0.02,1.02,-4,-2,-4,86,0
[15:14:02.496 29/11/2023],-139119.3,-68150.73,-103191.5,-157188.6,-80587.16,-108064.5,-135851,-102896,0.03,0.02,1.02,-4,-2,-4,86,0
[15:14:02.500 29/11/2023],-139107.4,-68142.46,-103189.7,-157172.5,-80568.07,-108053,-135848.9,-102891.5,0.03,0.02,1.02,-4,-2,-4,86,0
[15:14:02.504 29/11/2023],-139119.4,-68151.31,-103198.8,-157182.9,-80569.54,-108061,-135857.5,-102893.9,0.03,0.02,1.02,-4,-2,-4,86,0
[15:14:02.508 29/11/2023],-139128.9,-68166.16,-103206.5,-157193.5,-80610.76,-108072.2,-135877.9,-102916.6,0.03,0.02,1.02,-4,-2,-4,86,0
[15:14:02.512 29/11/2023],-139129.1,-68161.06,-103194.8,-157195.9,-80598.24,-108079.7,-135875.6,-102909.6,0.03,0.02,1.02,-4,-2,-4,86,0
[15:14:02.516 29/11/2023],-139130.8,-68159.59,-103201.2,-157187.7,-80587.47,-108079.4,-135871.6,-102914.4,0.03,0.02,1.02,-4,-2,-4,86,0
[15:14:02.520 29/11/2023],-139151.3,-68178.63,-103226.6,-157203.1,-80589.93,-108087.9,-135881.4,-102922.9,0.03,0.00,1.02,-4,-2,-4,86,0
[15:14:02.524 29/11/2023],-139157.6,-68188.91,-103225.2,-157208.9,-80603.92,-108084.9,-135889.3,-102922.7,0.03,0.00,1.02,-4,-2,-4,86,0
[15:14:02.528 29/11/2023],-139179.8,-68190.52,-103237.9,-157202.8,-80594.17,-108091,-135888.9,-102930.6,0.03,0.00,1.02,-4,-2,-4,86,0
[15:14:02.532 29/11/2023],-139184.4,-68197.67,-103233.9,-157216.4,-80560.65,-108082.8,-135889.5,-102920.9,0.03,0.00,1.02,-4,-2,-4,86,0
[15:14:02.536 29/11/2023],-139196.6,-68224.41,-103244.2,-157233.3,-80595.74,-108080.3,-135889.7,-102931.6,0.03,0.00,1.02,-4,-2,-4,86,0
[15:14:02.540 29/11/2023],-139227.6,-68258.38,-103265.1,-157259.2,-80617.64,-108096.4,-135906.5,-102940.4,0.03,0.00,1.02,-4,-2,-4,86,0
[15:14:02.544 29/11/2023],-139263.8,-68269.87,-103270.2,-157264,-80628.77,-108106.3,-135921.7,-102949.1,0.03,0.00,1.02,-4,-2,-4,86,0
[15:14:02.548 29/11/2023],-139284,-68293.25,-103290.2,-157271.9,-80609.06,-108107.6,-135923,-102959.6,0.03,0.00,1.02,-4,-2,-4,86,0
[15:14:02.552 29/11/2023],-139303,-68312.12,-103292.9,-157266.5,-80598.38,-108100.9,-135928.6,-102978.8,0.03,0.00,1.02,-4,-2,-4,86,0
[15:14:02.556 29/11/2023],-139341.1,-68348.01,-103302.4,-157290.3,-80613.84,-108093.8,-135950.1,-102971.9,0.03,0.00,1.02,-4,-2,-4,86,0
[15:14:02.560 29/11/2023],-139346.2,-68365.76,-103295.1,-157285,-80611.43,-108096.3,-135944.8,-102990.4,0.03,0.00,1.02,-4,-2,-4,86,0
[15:14:02.564 29/11/2023],-139364.8,-68370.5,-103323.7,-157300.2,-80612.99,-108090.6,-135940.3,-102966.5,0.03,0.00,1.02,-4,-2,-4,86,0
[15:14:02.568 29/11/2023],-139386.9,-68389.23,-103310.8,-157293.2,-80599.09,-108091.1,-135957.3,-102968.8,0.03,0.00,1.02,-4,-2,-4,86,0
[15:14:02.572 29/11/2023],-139415.7,-68432.77,-103345,-157326.9,-80624.35,-108110.9,-135981.9,-102988.6,0.03,0.00,1.02,-4,-2,-4,86,0
[15:14:02.576 29/11/2023],-139429,-68430.63,-103348.6,-157307.5,-80594.71,-108118.9,-135972.7,-102996.4,0.03,0.00,1.02,-4,-2,-4,86,0
[15:14:02.580 29/11/2023],-139447.6,-68470.41,-103364.7,-157342.9,-80616.26,-108144,-135984.8,-103025,0.03,0.00,1.02,-4,-2,-4,86,0
[15:14:02.584 29/11/2023],-139419.3,-68444.7,-103336.7,-157322,-80625.29,-108130.4,-135959.4,-103007.4,0.03,0.00,1.02,-4,-2,-4,86,0
[15:14:02.588 29/11/2023],-139415.9,-68433.71,-103329.6,-157312.9,-80614.11,-108116.8,-135957.3,-103002.2,0.03,0.00,1.02,-4,-2,-4,86,0
[15:14:02.592 29/11/2023],-139432.3,-68444.08,-103340.6,-157320.9,-80616.44,-108120.5,-135981.3,-103007,0.03,0.00,1.02,-4,-2,-4,86,0
[15:14:02.596 29/11/2023],-139416.5,-68432.37,-103347,-157320.1,-80618.98,-108106.3,-135959.8,-102995.6,0.03,0.00,1.02,-4,-2,-4,86,0
[15:14:02.600 29/11/2023],-139390.9,-68392.36,-103326.4,-157292.7,-80601.55,-108100.1,-135947.8,-102979.4,0.03,0.00,1.02,-4,-2,-4,86,0
[15:14:02.604 29/11/2023],-139404.2,-68417.13,-103344.6,-157321.7,-80615.32,-108121.7,-135964.2,-102990.8,0.03,0.00,1.02,-4,-2,-4,86,0
[15:14:02.608 29/11/2023],-139400.1,-68398.98,-103342.5,-157324.4,-80625.47,-108127.2,-135960.6,-102997.8,0.03,0.00,1.02,-4,-2,-4,86,0
[15:14:02.612 29/11/2023],-139396.6,-68391.38,-103349.8,-157316.9,-80612.05,-108135,-135958.1,-103007.7,0.03,0.00,1.02,-4,-2,-4,86,0
[15:14:02.616 29/11/2023],-139380.4,-68377.83,-103348.3,-157320.6,-80606.2,-108131.7,-135942.3,-102996.3,0.03,0.00,1.02,-4,-2,-4,86,0
[15:14:02.620 29/11/2023],-139358.5,-68362.77,-103318.7,-157305.5,-80626.95,-108121,-135943.3,-102997.5,0.03,0.00,1.02,-4,-2,-4,86,0
[15:14:02.624 29/11/2023],-139355.6,-68358.52,-103319.4,-157319.3,-80629.31,-108129.5,-135941.8,-103001.5,0.03,0.00,1.02,-4,-2,-4,86,0
[15:14:02.628 29/11/2023],-139361.1,-68367.99,-103317.8,-157335.1,-80623.59,-108142.8,-135952.1,-103002.6,0.03,0.02,0.98,-4,-2,-4,86,0
[15:14:02.632 29/11/2023],-139346.5,-68351.54,-103322.9,-157301.8,-80601.1,-108140.1,-135935.8,-103003.6,0.03,0.02,0.98,-4,-2,-4,86,0
[15:14:02.636 29/11/2023],-139328.2,-68322.8,-103303.6,-157278.7,-80612.86,-108132,-135938,-102982.9,0.03,0.02,0.98,-4,-2,-4,86,0
[15:14:02.640 29/11/2023],-139315.3,-68320.66,-103307.8,-157295.3,-80611.74,-108132.5,-135936,-102989.3,0.03,0.02,0.98,-4,-2,-4,86,0
[15:14:02.644 29/11/2023],-139306.6,-68322.27,-103305.1,-157312.3,-80618.31,-108129.3,-135923.2,-102984,0.03,0.02,0.98,-4,-2,-4,86,0
[15:14:02.648 29/11/2023],-139298.9,-68297.81,-103284.8,-157291.1,-80596.23,-108123.8,-135911.3,-102973.3,0.03,0.02,0.98,-4,-2,-4,86,0
[15:14:02.652 29/11/2023],-139310.9,-68304.11,-103295.9,-157293.9,-80595.88,-108132.3,-135929.5,-102985,0.03,0.02,0.98,-4,-2,-4,86,0
[15:14:02.656 29/11/2023],-139317.5,-68315.78,-103311.9,-157307.6,-80602.22,-108156.9,-135936.4,-103001.4,0.03,0.02,0.98,-4,-2,-4,86,0
[15:14:02.660 29/11/2023],-139308.2,-68313.63,-103316,-157296,-80622.65,-108158.8,-135916,-103007.4,0.03,0.02,0.98,-4,-2,-4,86,0
[15:14:02.664 29/11/2023],-139296.5,-68304.56,-103313.2,-157294.4,-80613.58,-108144.6,-135918,-102998.7,0.03,0.00,1.02,-4,-2,-4,86,0
[15:14:02.668 29/11/2023],-139285.3,-68281.76,-103282.2,-157279.7,-80630.07,-108130.6,-135916.7,-102979.3,0.03,0.00,1.02,-4,-2,-4,86,0
[15:14:02.672 29/11/2023],-139286.8,-68278.9,-103282.7,-157282.3,-80619.56,-108136.2,-135912.4,-102980,0.03,0.00,1.02,-4,-2,-4,86,0
[15:14:02.676 29/11/2023],-139276,-68271.57,-103275.3,-157287,-80611.74,-108116.6,-135909.8,-102975.2,0.03,0.00,1.02,-4,-2,-4,86,0
[15:14:02.680 29/11/2023],-139272,-68281.27,-103281.7,-157296.5,-80591.13,-108122,-135917.9,-102979.4,0.03,0.00,1.02,-4,-2,-4,86,0
[15:14:02.684 29/11/2023],-139268.4,-68267.77,-103299.3,-157282.6,-80615.85,-108139.4,-135906.2,-102976.9,0.03,0.00,1.02,-4,-2,-4,86,0
[15:14:02.688 29/11/2023],-139265.4,-68251.98,-103286.2,-157263.4,-80615.63,-108128.8,-135905.1,-102971.1,0.03,0.00,1.02,-4,-2,-4,86,0
[15:14:02.692 29/11/2023],-139265.8,-68262.27,-103276.9,-157284.6,-80598.2,-108127,-135920.7,-102978.9,0.03,0.00,1.02,-4,-2,-4,86,0
[15:14:02.696 29/11/2023],-139271.2,-68281.72,-103289.9,-157288.6,-80566.5,-108149.2,-135908.3,-102994.2,0.03,0.00,1.02,-4,-2,-4,86,0
[15:14:02.700 29/11/2023],-139247,-68246.94,-103275.5,-157259.9,-80605.84,-108126.6,-135902,-102970,0.05,0.00,1.02,-4,-2,-4,86,0
[15:14:02.704 29/11/2023],-139250.8,-68247.38,-103278.9,-157274.6,-80624.7,-108131.4,-135899.5,-102966.7,0.05,0.00,1.02,-4,-2,-4,86,0
[15:14:02.708 29/11/2023],-139253.2,-68266.61,-103287.9,-157287.8,-80614.07,-108140.6,-135899.3,-102980.5,0.05,0.00,1.02,-4,-2,-4,86,0
[15:14:02.712 29/11/2023],-139246.2,-68251.67,-103279.5,-157277.6,-80602.71,-108137.9,-135893.7,-102967,0.05,0.00,1.02,-4,-2,-4,86,0
[15:14:02.716 29/11/2023],-139226.9,-68229.91,-103275.7,-157254.5,-80598.69,-108125.3,-135872.4,-102956.2,0.05,0.00,1.02,-4,-2,-4,86,0
[15:14:02.720 29/11/2023],-139235.2,-68250.24,-103282.7,-157271.3,-80602.17,-108129,-135889.5,-102965.2,0.05,0.00,1.02,-4,-2,-4,86,0
[15:14:02.724 29/11/2023],-139244,-68245.64,-103293.3,-157292.2,-80610.18,-108136.7,-135891.5,-102970.5,0.05,0.00,1.02,-4,-2,-4,86,0
[15:14:02.728 29/11/2023],-139235.4,-68235.54,-103292.5,-157273.7,-80590.28,-108134.8,-135891.3,-102974.6,0.05,0.00,1.02,-4,-2,-4,86,0
[15:14:02.732 29/11/2023],-139226.4,-68235.67,-103297.3,-157270.3,-80571.2,-108126.4,-135878.4,-102959.1,0.05,0.00,1.02,-4,-2,-4,86,0
[15:14:02.736 29/11/2023],-139227.7,-68230.04,-103317.8,-157277.4,-80577.27,-108129.4,-135868.6,-102962.5,0.05,0.00,1.02,-4,-2,-4,86,0
[15:14:02.740 29/11/2023],-139232.2,-68251.9,-103305.6,-157269.1,-80584.48,-108117.4,-135902.3,-102971.3,0.05,0.00,1.02,-4,-2,-4,86,0
[15:14:02.744 29/11/2023],-139232.3,-68249.8,-103299.6,-157284.8,-80601.05,-108122,-135897.9,-102982.6,0.05,0.00,1.02,-4,-2,-4,86,0
[15:14:02.748 29/11/2023],-139210.2,-68209.79,-103280.8,-157247.6,-80572.36,-108112.9,-135869.4,-102944.8,0.05,0.00,1.02,-4,-2,-4,86,0
[15:14:02.752 29/11/2023],-139227.6,-68241.98,-103313,-157268.7,-80592.97,-108134,-135884.8,-102970.1,0.05,0.00,1.02,-4,-2,-4,86,0
[15:14:02.756 29/11/2023],-139236.1,-68234.06,-103309.6,-157274.8,-80568.96,-108141,-135895.7,-102977.7,0.05,0.00,1.02,-4,-2,-4,86,0
[15:14:02.760 29/11/2023],-139236.2,-68236.61,-103307,-157284.6,-80598.06,-108131.4,-135896.9,-102975.1,0.05,0.00,1.02,-4,-2,-4,86,0
[15:14:02.764 29/11/2023],-139221.1,-68221.59,-103316.1,-157267.3,-80613.8,-108123.3,-135885,-102968.6,0.05,0.00,1.02,-4,-2,-4,86,0
[15:14:02.768 29/11/2023],-139222.9,-68222.84,-103322.3,-157271.6,-80595.52,-108135.5,-135884.6,-102966.6,0.05,0.00,1.02,-4,-2,-4,86,0
[15:14:02.772 29/11/2023],-139228.8,-68239.29,-103334.8,-157284.2,-80588.14,-108144.5,-135885.1,-102977.2,0.05,0.00,1.02,-4,-2,-4,86,0
[15:14:02.776 29/11/2023],-139232.5,-68232.45,-103333.9,-157290.3,-80606.38,-108149.8,-135894.5,-102992.8,0.05,0.00,1.02,-4,-2,-4,86,0
[15:14:02.780 29/11/2023],-139241,-68245.28,-103357.9,-157299.9,-80598.33,-108156.4,-135908,-102998.3,0.05,0.00,1.02,-4,-2,-4,86,0
[15:14:02.784 29/11/2023],-139220.7,-68219.76,-103341.5,-157280.2,-80576.34,-108136.8,-135877.9,-102971.5,0.05,0.00,1.02,-4,-2,-4,86,0
[15:14:02.788 29/11/2023],-139216.1,-68216.67,-103327.7,-157274.9,-80565.97,-108139.3,-135884.7,-102965.5,0.05,0.00,1.02,-4,-2,-4,86,0
[15:14:02.792 29/11/2023],-139220,-68225.97,-103339.4,-157289.9,-80585.05,-108142.1,-135878.8,-102974.4,0.05,0.00,1.02,-4,-2,-4,86,0
[15:14:02.796 29/11/2023],-139218.4,-68218.1,-103339.1,-157292.2,-80604.91,-108129.6,-135882.8,-102972.2,0.05,0.00,1.02,-4,-2,-4,86,0
[15:14:02.800 29/11/2023],-139211,-68215.11,-103340.3,-157280.1,-80589.16,-108127.1,-135878.1,-102967.8,0.05,0.00,1.02,-4,-2,-4,86,0
[15:14:02.804 29/11/2023],-139211,-68216.45,-103351.9,-157280.1,-80581.88,-108127.7,-135879.4,-102973.1,0.05,0.00,1.02,-4,-2,-4,86,0
[15:14:02.808 29/11/2023],-139212.3,-68219.71,-103353.9,-157269,-80567.22,-108143.5,-135872.6,-102972.9,0.03,0.00,1.02,-4,-2,-4,86,0
[15:14:02.812 29/11/2023],-139213.6,-68217.52,-103353.7,-157287.5,-80597.35,-108138,-135884.3,-102979.8,0.03,0.00,1.02,-4,-2,-4,86,0
[15:14:02.816 29/11/2023],-139196.9,-68188.64,-103341.9,-157268.1,-80591.49,-108111.5,-135868.8,-102949.4,0.03,0.00,1.02,-4,-2,-4,86,0
[15:14:02.820 29/11/2023],-139208.9,-68199.38,-103361.8,-157266.3,-80591.89,-108127.6,-135876.3,-102954.5,0.03,0.00,1.02,-4,-2,-4,86,0
[15:14:02.824 29/11/2023],-139231.2,-68214.57,-103384.1,-157277.2,-80588.81,-108149.2,-135888.5,-102988.3,0.03,0.00,1.02,-4,-2,-4,86,0
[15:14:02.828 29/11/2023],-139196.1,-68195.48,-103363.2,-157272.3,-80562.7,-108120.1,-135871.9,-102957.6,0.03,0.00,1.02,-4,-2,-4,86,0
[15:14:02.832 29/11/2023],-139217.5,-68213.32,-103394.5,-157293.1,-80547.15,-108134.1,-135874.6,-102968.9,0.03,0.00,1.02,-4,-2,-4,86,0
[15:14:02.836 29/11/2023],-139216.7,-68202.59,-103367.7,-157277.5,-80572.41,-108128.5,-135889.5,-102952,0.03,0.00,1.02,-4,-2,-4,86,0
[15:14:02.840 29/11/2023],-139226.4,-68227.98,-103373.1,-157307.1,-80592.97,-108146.5,-135895.3,-102983.1,0.03,0.00,1.02,-4,-2,-4,86,0
[15:14:02.844 29/11/2023],-139218.6,-68213.55,-103370.2,-157300.6,-80568.73,-108130.9,-135885.2,-102972.7,0.03,0.00,1.02,-4,-2,-4,86,0
[15:14:02.848 29/11/2023],-139223.9,-68213.95,-103390.8,-157301.3,-80582.69,-108150,-135884.6,-102985.3,0.03,0.00,1.02,-4,-2,-4,86,0
[15:14:02.852 29/11/2023],-139214.4,-68210.64,-103374.3,-157293.6,-80594.76,-108140.1,-135880.5,-102972.8,0.03,0.00,1.02,-4,-2,-4,86,0
[15:14:02.856 29/11/2023],-139223.6,-68225.79,-103380.9,-157291.9,-80601.41,-108143.6,-135885.4,-102983.1,0.03,0.00,1.02,-4,-2,-4,86,0
[15:14:02.860 29/11/2023],-139206.5,-68207.06,-103361.7,-157265.8,-80585.68,-108129.7,-135878.1,-102967.1,0.03,0.00,1.02,-4,-2,-4,86,0
[15:14:02.864 29/11/2023],-139196.1,-68195.48,-103363.2,-157272.3,-80562.7,-108120.1,-135871.9,-102957.6,0.03,0.00,1.02,-4,-2,-4,86,0
[15:14:02.868 29/11/2023],-139217.5,-68213.32,-103394.5,-157293.1,-80547.15,-108134.1,-135874.6,-102968.9,0.03,0.00,1.02,-4,-2,-4,86,0
[15:14:02.872 29/11/2023],-139216.7,-68202.59,-103367.7,-157277.5,-80572.41,-108128.5,-135889.5,-102952,0.03,0.00,1.02,-4,-2,-4,86,0
[15:14:02.876 29/11/2023],-139226.4,-68227.98,-103373.1,-157307.1,-80592.97,-108146.5,-135895.3,-102983.1,0.03,0.00,1.02,-4,-2,-4,86,0
[15:14:02.880 29/11/2023],-139226.7,-68207.2,-103387.4,-157307.2,-80593.1,-108134.9,-135887.3,-102978.4,0.05,0.00,1.02,-4,-2,-4,86,0
[15:14:02.884 29/11/2023],-139215.1,-68189.85,-103381.7,-157273.6,-80569.41,-108119.3,-135872.6,-102958.7,0.05,0.00,1.02,-4,-2,-4,86,0
[15:14:02.888 29/11/2023],-139222.8,-68197.67,-103371.2,-157279,-80574.64,-108145.8,-135883.3,-102977.9,0.05,0.00,1.02,-4,-2,-4,86,0
[15:14:02.892 29/11/2023],-139239.7,-68223.6,-103390.5,-157314.8,-80600.66,-108160.7,-135894.3,-102983.9,0.05,0.00,1.02,-4,-2,-4,86,0
[15:14:02.896 29/11/2023],-139230.2,-68218.69,-103396.4,-157317.4,-80602.4,-108160.6,-135893.1,-102985.6,0.05,0.00,1.02,-4,-2,-4,86,0
[15:14:02.900 29/11/2023],-139224.6,-68199.15,-103382.2,-157299.2,-80578.57,-108147.2,-135884.3,-102964,0.05,0.00,1.02,-4,-2,-4,86,0
[15:14:02.904 29/11/2023],-139247.1,-68225.7,-103398.6,-157322.2,-80575.35,-108166.5,-135902.2,-102991.3,0.05,0.00,1.02,-4,-2,-4,86,0
[15:14:02.908 29/11/2023],-139231.9,-68209.16,-103396.5,-157294.5,-80568.02,-108156.3,-135899.6,-103005.1,0.05,0.00,1.02,-4,-2,-4,86,0
[15:14:02.912 29/11/2023],-139227.4,-68200.53,-103393.5,-157304.2,-80591.72,-108154.7,-135892.4,-102974.9,0.05,0.00,1.02,-4,-2,-4,86,0
[15:14:02.916 29/11/2023],-139226.9,-68209.88,-103379.7,-157303.7,-80590.77,-108142.9,-135878.5,-102984.7,0.05,0.00,1.02,-4,-2,-4,86,0
[15:14:02.920 29/11/2023],-139233.3,-68217.03,-103383.1,-157311.4,-80602.22,-108159.6,-135890.6,-102982.4,0.05,0.00,1.02,-4,-2,-4,86,0
[15:14:02.924 29/11/2023],-139249.2,-68228.43,-103403.9,-157320.4,-80591.27,-108181.1,-135903.9,-102999.3,0.05,0.00,1.02,-4,-2,-4,86,0
[15:14:02.928 29/11/2023],-139255.8,-68221.19,-103411.8,-157324.6,-80603.16,-108173.5,-135904,-102999.2,0.05,0.00,1.02,-4,-2,-4,86,0
[15:14:02.932 29/11/2023],-139231.4,-68190.92,-103388.7,-157305.1,-80598.38,-108150.1,-135883.6,-102968.7,0.05,0.00,1.02,-4,-2,-4,86,0
[15:14:02.936 29/11/2023],-139232.9,-68208.13,-103386.7,-157320.1,-80593.23,-108162.9,-135890.4,-102987.9,0.05,0.00,1.02,-4,-2,-4,86,0
[15:14:02.940 29/11/2023],-139252.3,-68229.77,-103400.8,-157317.7,-80596.9,-108174.3,-135908.3,-103007.2,0.05,0.00,1.02,-4,-2,-4,86,0
[15:14:02.944 29/11/2023],-139248.4,-68229.37,-103403.9,-157328,-80590.69,-108168.6,-135903.4,-103004.6,0.05,0.00,1.02,-4,-2,-4,86,0
[15:14:02.948 29/11/2023],-139233.4,-68193.02,-103384.3,-157304.8,-80568.29,-108154.1,-135891.7,-102974.7,0.05,0.00,1.02,-4,-2,-4,86,0
[15:14:02.952 29/11/2023],-139242.3,-68211.22,-103397.4,-157309.6,-80581.26,-108165.3,-135898.7,-103003.5,0.03,0.00,1.02,-4,-2,-4,86,0
[15:14:02.956 29/11/2023],-139247.4,-68220.92,-103410.9,-157341.2,-80599.54,-108165.1,-135901.1,-102987.3,0.03,0.00,1.02,-4,-2,-4,86,0
[15:14:02.960 29/11/2023],-139240.7,-68207.64,-103405.5,-157315.6,-80582.33,-108149.5,-135892.4,-102980.6,0.03,0.00,1.02,-4,-2,-4,86,0
[15:14:02.964 29/11/2023],-139225.4,-68192.09,-103391.7,-157293.6,-80550.63,-108135.1,-135887.4,-102986.4,0.03,0.00,1.02,-4,-2,-4,86,0
[15:14:02.968 29/11/2023],-139233.8,-68199.02,-103405,-157313.4,-80577.27,-108166.6,-135887.3,-102993.4,0.03,0.00,1.02,-4,-2,-4,86,0
[15:14:02.972 29/11/2023],-139222.2,-68203.93,-103389.4,-157316.3,-80587.47,-108163.4,-135901.3,-102986.4,0.03,0.00,1.02,-4,-2,-4,86,0
[15:14:02.976 29/11/2023],-139246.6,-68206.21,-103406,-157326.7,-80586.17,-108172.3,-135907.8,-102993.2,0.03,0.00,1.02,-4,-2,-4,86,0
[15:14:02.980 29/11/2023],-139241,-68195.88,-103391.9,-157311.2,-80578.13,-108162.9,-135892,-102995.3,0.03,0.00,1.02,-4,-2,-4,86,0
[15:14:02.984 29/11/2023],-139229.9,-68189.36,-103382.1,-157309.7,-80558.77,-108155.8,-135884,-102998.8,0.03,0.00,1.02,-4,-2,-4,86,0
[15:14:02.988 29/11/2023],-139248.9,-68215.47,-103415.6,-157336.9,-80557.88,-108175.8,-135895,-102999.8,0.03,0.00,1.02,-4,-2,-4,86,0
[15:14:02.992 29/11/2023],-139248.9,-68219.71,-103415.9,-157332.7,-80594.89,-108176.2,-135894.5,-103005.5,0.03,0.00,1.02,-4,-2,-4,86,0
[15:14:02.996 29/11/2023],-139243.9,-68199.91,-103406.9,-157325,-80581.88,-108154.1,-135893.8,-102991.3,0.03,0.00,1.02,-4,-2,-4,86,0
[15:14:03.000 29/11/2023],-139232.7,-68186.05,-103379.1,-157296.7,-80563.38,-108153.5,-135895.3,-102976.8,0.03,0.00,1.02,-4,-2,-4,86,0
[15:14:03.004 29/11/2023],-139245.3,-68199.64,-103401.5,-157317.4,-80573.74,-108165,-135900.8,-102993.9,0.03,0.00,1.02,-4,-2,-4,86,0
[15:14:03.008 29/11/2023],-139255.4,-68203.3,-103405.4,-157307.4,-80570.98,-108169.6,-135906.6,-102994.2,0.03,0.00,1.02,-4,-2,-4,86,0
[15:14:03.012 29/11/2023],-139258.6,-68204.83,-103416.2,-157338.8,-80581.21,-108171.4,-135911.6,-102998.9,0.03,0.00,1.02,-4,-2,-4,86,0
[15:14:03.016 29/11/2023],-139234.5,-68182.02,-103397.2,-157307.6,-80571.2,-108155.8,-135886.6,-102971.6,0.03,0.00,1.02,-4,-2,-4,86,0
[15:14:03.020 29/11/2023],-139242.3,-68192.09,-103399.1,-157306.7,-80564.71,-108159,-135888.4,-102979.5,0.03,0.00,1.02,-4,-2,-4,86,0
[15:14:03.024 29/11/2023],-139260.1,-68210.05,-103408.7,-157334.1,-80567.44,-108179.8,-135905,-102984.6,0.03,-0.02,1.00,-4,-2,-4,86,0
[15:14:03.028 29/11/2023],-139255.9,-68223.6,-103406.6,-157350.8,-80588.5,-108170.7,-135912.9,-102987.1,0.03,-0.02,1.00,-4,-2,-4,86,0
[15:14:03.032 29/11/2023],-139235.1,-68179.84,-103404,-157306.2,-80564.09,-108150.1,-135884.8,-102981.9,0.03,-0.02,1.00,-4,-2,-4,86,0
[15:14:03.036 29/11/2023],-139249.2,-68193.12,-103418,-157310.8,-80580.85,-108157.6,-135894.8,-102992.4,0.03,-0.02,1.00,-4,-2,-4,86,0
[15:14:03.040 29/11/2023],-139247.6,-68209.92,-103392.9,-157329.9,-80573.21,-108173.8,-135891,-103007.9,0.03,-0.02,1.00,-4,-2,-4,86,0
[15:14:03.044 29/11/2023],-139245.6,-68201.96,-103402.3,-157323,-80578.35,-108174.8,-135897.9,-102988.5,0.03,-0.02,1.00,-4,-2,-4,86,0
[15:14:03.048 29/11/2023],-139236.1,-68179.13,-103393,-157305.4,-80549.91,-108162.5,-135884.5,-102971.2,0.03,-0.02,1.00,-4,-2,-4,86,0
[15:14:03.052 29/11/2023],-139252.1,-68193.29,-103403.4,-157328,-80567.84,-108166.5,-135894.2,-102988.4,0.03,-0.02,1.00,-4,-2,-4,86,0
[15:14:03.056 29/11/2023],-139263,-68201.52,-103417,-157337.6,-80580.98,-108166.3,-135907,-102989.4,0.03,-0.02,1.00,-4,-2,-4,86,0
[15:14:03.060 29/11/2023],-139256.8,-68197.14,-103414.5,-157318,-80592.25,-108167.4,-135897.4,-102988.3,0.03,0.00,1.00,-4,-2,-4,86,0
[15:14:03.064 29/11/2023],-139250.8,-68200.13,-103408.6,-157314.8,-80580.59,-108159.9,-135894.6,-102985.5,0.03,0.00,1.00,-4,-2,-4,86,0
[15:14:03.068 29/11/2023],-139249,-68188.06,-103403.7,-157312.5,-80574.82,-108149.8,-135894.3,-102979.1,0.03,0.00,1.00,-4,-2,-4,86,0
[15:14:03.072 29/11/2023],-139255.8,-68192.13,-103420.2,-157320.6,-80575.76,-108168.5,-135913,-102994.3,0.03,0.00,1.00,-4,-2,-4,86,0
[15:14:03.076 29/11/2023],-139272.5,-68230.66,-103435.7,-157348.8,-80574.91,-108191.3,-135915.9,-103000.5,0.03,0.00,1.00,-4,-2,-4,86,0
[15:14:03.080 29/11/2023],-139265.6,-68219.4,-103424.7,-157329.9,-80582.59,-108167.7,-135907.6,-102999.6,0.03,0.00,1.00,-4,-2,-4,86,0
[15:14:03.084 29/11/2023],-139251.7,-68203.53,-103413.4,-157336.6,-80558.77,-108162.8,-135894.5,-102985,0.03,0.00,1.00,-4,-2,-4,86,0
[15:14:03.088 29/11/2023],-139261.2,-68213.01,-103413.3,-157331.4,-80585.63,-108180,-135898.5,-102995.5,0.03,0.00,1.00,-4,-2,-4,86,0
[15:14:03.092 29/11/2023],-139261.3,-68209.43,-103417.6,-157323.3,-80592.84,-108176,-135899.5,-102995.4,0.03,0.00,1.00,-4,-2,-4,86,0
[15:14:03.096 29/11/2023],-139256.7,-68202.19,-103409,-157324.8,-80585.23,-108176,-135901.8,-102994.5,0.05,0.00,1.02,-4,-2,-4,86,0
[15:14:03.100 29/11/2023],-139253.1,-68196.06,-103413.4,-157325.1,-80576.65,-108170,-135895.7,-102984.7,0.05,0.00,1.02,-4,-2,-4,86,0
[15:14:03.104 29/11/2023],-139257.7,-68206.62,-103427.2,-157341.3,-80557.92,-108181.6,-135899.8,-102994,0.05,0.00,1.02,-4,-2,-4,86,0
[15:14:03.108 29/11/2023],-139263.5,-68208.76,-103426,-157330.8,-80543.75,-108191.4,-135889.3,-102998.7,0.05,0.00,1.02,-4,-2,-4,86,0
[15:14:03.112 29/11/2023],-139256.8,-68197.54,-103426.9,-157336.7,-80574.64,-108167.3,-135895.5,-102992.3,0.05,0.00,1.02,-4,-2,-4,86,0
[15:14:03.116 29/11/2023],-139243.3,-68172.02,-103403.2,-157295.7,-80558.37,-108142.5,-135890.5,-102963.8,0.05,0.00,1.02,-4,-2,-4,86,0
[15:14:03.120 29/11/2023],-139247,-68185.29,-103395.8,-157310.3,-80570.7,-108166.2,-135890.7,-102971,0.05,0.00,1.02,-4,-2,-4,86,0
[15:14:03.124 29/11/2023],-139261.2,-68213.01,-103413.3,-157331.4,-80585.63,-108180,-135898.5,-102995.5,0.05,0.00,1.02,-4,-2,-4,86,0
[15:14:03.128 29/11/2023],-139261.3,-68209.43,-103417.6,-157323.3,-80592.84,-108176,-135899.5,-102995.4,0.05,0.00,1.02,-4,-2,-4,86,0
[15:14:03.132 29/11/2023],-139245.9,-68209.2,-103397.4,-157311.4,-80570.52,-108168.3,-135890.9,-102977.2,0.03,0.00,1.02,-4,-2,-4,86,0
[15:14:03.136 29/11/2023],-139251.8,-68197.41,-103409.1,-157315.1,-80572.98,-108173.8,-135891,-102974.2,0.03,0.00,1.02,-4,-2,-4,86,0
[15:14:03.140 29/11/2023],-139272.3,-68203.93,-103417.8,-157318,-80577.45,-108196.4,-135902.5,-103008.7,0.03,0.00,1.02,-4,-2,-4,86,0
[15:14:03.144 29/11/2023],-139274.9,-68218.1,-103422.3,-157347.3,-80580.8,-108199.6,-135903.9,-103010.3,0.03,0.00,1.02,-4,-2,-4,86,0
[15:14:03.148 29/11/2023],-139281.6,-68232.14,-103414,-157346.8,-80572.09,-108185.5,-135906.1,-102990,0.03,0.00,1.02,-4,-2,-4,86,0
[15:14:03.152 29/11/2023],-139274.7,-68223.6,-103418.6,-157330.4,-80558.32,-108198.3,-135892.8,-103002.9,0.03,0.00,1.02,-4,-2,-4,86,0
[15:14:03.156 29/11/2023],-139286.6,-68224.49,-103405.9,-157339.4,-80576.52,-108193.9,-135913,-103002.7,0.03,0.00,1.02,-4,-2,-4,86,0
[15:14:03.160 29/11/2023],-139291.6,-68233.44,-103414.5,-157346.7,-80571.06,-108192.9,-135909.8,-103009.9,0.03,0.00,1.02,-4,-2,-4,86,0
[15:14:03.164 29/11/2023],-139282.7,-68228.79,-103417.6,-157328.4,-80579.55,-108188.6,-135892.2,-103002.6,0.03,0.00,1.02,-4,-2,-4,86,0
[15:14:03.168 29/11/2023],-139274.1,-68205.41,-103402.2,-157340.3,-80564.18,-108188.8,-135912.3,-102998.2,0.03,0.00,1.02,-4,-2,-4,86,0
[15:14:03.172 29/11/2023],-139276.5,-68219.27,-103407.5,-157332.5,-80572.31,-108194.8,-135898,-103001.8,0.03,0.00,1.02,-4,-2,-4,86,0
[15:14:03.176 29/11/2023],-139284.6,-68223.6,-103422.1,-157338.9,-80584.34,-108200.2,-135907,-103007.4,0.03,0.00,1.02,-4,-2,-4,86,0
[15:14:03.180 29/11/2023],-139285.6,-68221.59,-103418.3,-157355,-80589.97,-108183.4,-135911.4,-102990.3,0.03,0.00,1.02,-4,-2,-4,86,0
[15:14:03.184 29/11/2023],-139281.6,-68232.14,-103414,-157346.8,-80572.09,-108185.5,-135906.1,-102990,0.03,0.00,1.02,-4,-2,-4,86,0
[15:14:03.188 29/11/2023],-139274.7,-68223.6,-103418.6,-157330.4,-80558.32,-108198.3,-135892.8,-103002.9,0.03,0.00,1.02,-4,-2,-4,86,0
[15:14:03.192 29/11/2023],-139286.6,-68224.49,-103405.9,-157339.4,-80576.52,-108193.9,-135913,-103002.7,0.03,0.00,1.02,-4,-2,-4,86,0
[15:14:03.196 29/11/2023],-139291.6,-68233.44,-103414.5,-157346.7,-80571.06,-108192.9,-135909.8,-103009.9,0.03,0.00,1.02,-4,-2,-4,86,0
[15:14:03.200 29/11/2023],-139282.7,-68228.79,-103417.6,-157328.4,-80579.55,-108188.6,-135892.2,-103002.6,0.03,0.00,1.02,-4,-2,-4,86,0
[15:14:03.204 29/11/2023],-139298.1,-68235.9,-103428,-157354.5,-80580.54,-108201.5,-135904.5,-103010,0.05,0.00,1.02,-4,-2,-4,86,0
[15:14:03.208 29/11/2023],-139309.4,-68255.92,-103426,-157366.1,-80586.35,-108202.2,-135909.9,-103001,0.05,0.00,1.02,-4,-2,-4,86,0
[15:14:03.212 29/11/2023],-139301.5,-68237.05,-103424.6,-157336.3,-80578.8,-108184.9,-135904.4,-102972.7,0.05,0.00,1.02,-4,-2,-4,86,0
[15:14:03.216 29/11/2023],-139292.1,-68221.95,-103423.7,-157331.3,-80573.66,-108175.2,-135891.4,-102982.4,0.05,0.00,1.02,-4,-2,-4,86,0
[15:14:03.220 29/11/2023],-139301.9,-68226.38,-103418.8,-157327,-80576.34,-108185.2,-135901.7,-102998.9,0.05,0.00,1.02,-4,-2,-4,86,0
[15:14:03.224 29/11/2023],-139336.5,-68285.29,-103436,-157370.6,-80579.91,-108205.3,-135916.1,-103026.6,0.05,0.00,1.02,-4,-2,-4,86,0
[15:14:03.228 29/11/2023],-139341.9,-68291.02,-103445.7,-157365.3,-80576.29,-108209.3,-135916.1,-103030.5,0.05,0.00,1.02,-4,-2,-4,86,0
[15:14:03.232 29/11/2023],-139259.7,-68232.77,-103385.3,-157343.7,-80565.92,-108207.3,-135876.7,-103017.5,0.05,0.00,1.02,-4,-2,-4,86,0
[15:14:03.236 29/11/2023],-139261.2,-68232.5,-103388.8,-157346,-80529.84,-108208.2,-135872.9,-103019.1,0.05,0.00,1.02,-4,-2,-4,86,0
[15:14:03.240 29/11/2023],-139309.7,-68281.13,-103423.4,-157352.8,-80565.25,-108217.8,-135891.3,-103034.6,0.03,0.00,1.02,-4,-2,-4,86,0
[15:14:03.244 29/11/2023],-139302.4,-68287.35,-103417.5,-157363.3,-80572.23,-108214.6,-135883.9,-103045.8,0.03,0.00,1.02,-4,-2,-4,86,0
[15:14:03.248 29/11/2023],-139279.6,-68268.53,-103399.6,-157364.3,-80558.01,-108186.4,-135870.9,-103015.4,0.03,0.00,1.02,-4,-2,-4,86,0
[15:14:03.252 29/11/2023],-139280.7,-68253.33,-103396.4,-157354,-80555.38,-108181,-135872.3,-103014.1,0.03,0.00,1.02,-4,-2,-4,86,0
[15:14:03.256 29/11/2023],-139280.7,-68253.77,-103393.3,-157332,-80575.84,-108192.7,-135871,-103039.3,0.03,0.00,1.02,-4,-2,-4,86,0
[15:14:03.260 29/11/2023],-139290.1,-68263.21,-103405.8,-157355.7,-80572.27,-108213.6,-135883.4,-103039.3,0.03,0.00,1.02,-4,-2,-4,86,0
[15:14:03.264 29/11/2023],-139272.7,-68247.2,-103403.5,-157357.7,-80561.41,-108208.6,-135867.6,-103031.5,0.03,0.00,1.02,-4,-2,-4,86,0
[15:14:03.268 29/11/2023],-139259.7,-68232.77,-103385.3,-157343.7,-80565.92,-108207.3,-135876.7,-103017.5,0.03,0.00,1.02,-4,-2,-4,86,0
[15:14:03.272 29/11/2023],-139261.2,-68232.5,-103388.8,-157346,-80529.84,-108208.2,-135872.9,-103019.1,0.03,0.00,1.02,-4,-2,-4,86,0
[15:14:03.276 29/11/2023],-139264.7,-68232.09,-103391.8,-157344.1,-80586.71,-108198.6,-135875.3,-103013.7,0.03,0.00,1.02,-4,-2,-4,86,0
[15:14:03.280 29/11/2023],-139255.4,-68221.37,-103378.6,-157325.3,-80574.55,-108194.4,-135867.8,-103007.7,0.03,0.00,1.02,-4,-2,-4,86,0
[15:14:03.284 29/11/2023],-139257,-68230.8,-103384,-157330.8,-80545.72,-108191.6,-135868.4,-103015.7,0.03,0.00,1.02,-4,-2,-4,86,0
[15:14:03.288 29/11/2023],-139271.4,-68235.54,-103400,-157344.7,-80580.14,-108199.9,-135876.5,-103012,0.03,0.00,1.02,-4,-2,-4,86,0
[15:14:03.292 29/11/2023],-139278.3,-68236.43,-103406.6,-157343.5,-80590.33,-108205.9,-135884.1,-103019.1,0.03,0.00,1.02,-4,-2,-4,86,0
[15:14:03.296 29/11/2023],-139266.3,-68223.6,-103400.3,-157332.4,-80557.83,-108195.6,-135875.5,-103005.5,0.03,0.00,1.02,-4,-2,-4,86,0
[15:14:03.300 29/11/2023],-139253.4,-68222.13,-103385.8,-157342.4,-80539.01,-108192.4,-135859.1,-102990.7,0.03,0.00,1.02,-4,-2,-4,86,0
[15:14:03.304 29/11/2023],-139265.9,-68232.77,-103409.4,-157338.3,-80582.55,-108201.7,-135864.9,-103010.7,0.03,0.00,1.02,-4,-2,-4,86,0
[15:14:03.308 29/11/2023],-139273.6,-68227.4,-103405.6,-157328.9,-80586.04,-108202.6,-135883.3,-103022.2,0.03,0.00,1.02,-4,-2,-4,86,0
[15:14:03.312 29/11/2023],-139267.1,-68230.8,-103397.6,-157350.7,-80574.64,-108201.4,-135873.8,-103012.5,0.03,0.00,1.02,-4,-2,-4,86,0
[15:14:03.316 29/11/2023],-139261.7,-68231.24,-103410.1,-157353.5,-80559.3,-108188.1,-135860.8,-102989,0.03,0.00,1.02,-4,-2,-4,86,0
[15:14:03.320 29/11/2023],-139246.5,-68213.23,-103395.9,-157323.5,-80566.28,-108180.6,-135852.3,-102996.9,0.03,0.00,1.02,-4,-2,-4,86,0
[15:14:03.324 29/11/2023],-139254.4,-68206.52,-103399.7,-157308,-80579.24,-108179.5,-135858.7,-102999.4,0.03,0.00,1.02,-4,-2,-4,86,0
[15:14:03.328 29/11/2023],-139259,-68228.48,-103395.4,-157338.1,-80571.91,-108195.4,-135867.8,-103012.2,0.03,0.00,1.02,-4,-2,-4,86,0
[15:14:03.332 29/11/2023],-139236.2,-68196.24,-103378.8,-157312.2,-80542.59,-108168.7,-135850.9,-102991.7,0.03,0.00,1.02,-4,-2,-4,86,0
[15:14:03.336 29/11/2023],-139244.2,-68201.61,-103384.4,-157299.3,-80538.7,-108185.2,-135853,-102981,0.03,0.00,1.02,-4,-2,-4,86,0
[15:14:03.340 29/11/2023],-139250.6,-68220.52,-103395.7,-157323.3,-80565.7,-108211,-135850.9,-103007.9,0.03,0.00,1.02,-4,-2,-4,86,0
[15:14:03.344 29/11/2023],-139246.3,-68212.16,-103403.1,-157326.1,-80562.7,-108201.9,-135856.5,-103003.1,0.03,0.00,1.02,-4,-2,-4,86,0
[15:14:03.348 29/11/2023],-139240,-68219.04,-103400.5,-157337.4,-80550.86,-108198,-135857.5,-103003,0.03,0.00,1.02,-4,-2,-4,86,0
[15:14:03.352 29/11/2023],-139254.2,-68246.31,-103413.8,-157338.5,-80569.63,-108199.9,-135856.3,-103009.8,0.03,0.00,1.02,-4,-2,-4,86,0
[15:14:03.356 29/11/2023],-139258.2,-68227.67,-103391.1,-157335.8,-80556.27,-108204.4,-135869.5,-103010.6,0.03,0.00,1.02,-4,-2,-4,86,0
[15:14:03.360 29/11/2023],-139256.4,-68212.11,-103388.9,-157327.3,-80560.47,-108199.2,-135871.8,-103006,0.03,0.00,1.02,-4,-2,-4,86,0
[15:14:03.364 29/11/2023],-139243.7,-68209.07,-103381,-157320.8,-80558.77,-108184.3,-135858.5,-103007.2,0.03,0.00,1.02,-4,-2,-4,86,0
[15:14:03.368 29/11/2023],-139234,-68203.53,-103375,-157311.5,-80553.54,-108175,-135847.1,-102982.8,0.03,0.00,1.02,-4,-2,-4,86,0
[15:14:03.372 29/11/2023],-139248.5,-68202.23,-103392.2,-157327,-80553,-108188.6,-135858.5,-102988.2,0.03,0.00,1.02,-4,-2,-4,86,0
[15:14:03.376 29/11/2023],-139249.8,-68216.05,-103402.2,-157337.5,-80563.2,-108209.4,-135857.1,-103013.9,0.03,0.00,1.02,-4,-2,-4,86,0
[15:14:03.380 29/11/2023],-139235.7,-68213.55,-103382,-157332.2,-80548.71,-108203.2,-135850.9,-103009.7,0.03,0.00,1.02,-4,-2,-4,86,0
[15:14:03.384 29/11/2023],-139221.8,-68178.36,-103364.7,-157292.5,-80525.91,-108185.3,-135842.1,-102982.4,0.03,0.00,1.02,-4,-2,-4,86,0
[15:14:03.388 29/11/2023],-139242.3,-68199.15,-103388.1,-157302.4,-80540.44,-108198.4,-135855.4,-102995,0.03,0.00,1.02,-4,-2,-4,86,0
[15:14:03.392 29/11/2023],-139247.4,-68211.35,-103390,-157327.5,-80561.98,-108187.2,-135850.4,-102999.5,0.03,0.00,1.02,-4,-2,-4,86,0
[15:14:03.396 29/11/2023],-139236.2,-68191.99,-103374.8,-157313,-80570.98,-108185.6,-135847.1,-102993.1,0.03,0.00,1.02,-4,-2,-4,86,0
[15:14:03.400 29/11/2023],-139238.6,-68209.88,-103379.5,-157319.8,-80563.55,-108191.5,-135840.7,-103007.8,0.03,0.00,1.02,-4,-2,-4,86,0
[15:14:03.404 29/11/2023],-139231.7,-68195.75,-103391.6,-157323.6,-80558.55,-108218.5,-135837.5,-102990.3,0.03,0.00,1.02,-4,-2,-4,86,0
[15:14:03.408 29/11/2023],-139243.4,-68194.86,-103397.6,-157327.2,-80565.56,-108209.9,-135855.6,-102983.3,0.03,0.00,1.02,-4,-2,-4,86,0
[15:14:03.412 29/11/2023],-139277.4,-68210.05,-103399.6,-157327.2,-80573.43,-108192.2,-135883.3,-102997.9,0.03,0.00,1.02,-4,-2,-4,86,0
[15:14:03.416 29/11/2023],-139286.4,-68230.8,-103416.1,-157338,-80553.05,-108201.8,-135873.4,-103005.8,0.03,0.00,1.02,-4,-2,-4,86,0
[15:14:03.420 29/11/2023],-139339.3,-68249.3,-103454,-157338.5,-80555.2,-108213.7,-135894.9,-103006.4,0.03,0.00,1.02,-4,-2,-4,86,0
[15:14:03.424 29/11/2023],-139333.3,-68249.09,-103451.3,-157349.9,-80562.21,-108209.5,-135902.9,-103013.5,0.03,0.00,1.02,-4,-2,-4,86,0
[15:14:03.428 29/11/2023],-139317.9,-68224.85,-103446.4,-157336.2,-80572.9,-108197.7,-135894.1,-102999.6,0.03,0.00,1.02,-4,-2,-4,86,0
[15:14:03.432 29/11/2023],-139312.3,-68211.66,-103444.8,-157324.7,-80571.78,-108199.8,-135886.9,-103004.3,0.03,0.00,1.02,-4,-2,-4,86,0
[15:14:03.436 29/11/2023],-139321.6,-68209.88,-103453.3,-157326.3,-80582.51,-108196.9,-135906.3,-103012.4,0.03,0.00,1.02,-4,-2,-4,86,0
[15:14:03.440 29/11/2023],-139307.8,-68211.71,-103437.8,-157340.5,-80563.69,-108193.5,-135887.9,-102990.3,0.03,0.00,1.02,-4,-2,-4,86,0
[15:14:03.444 29/11/2023],-139298.6,-68197.27,-103434.3,-157313,-80535.34,-108185,-135885.9,-102994.5,0.03,0.00,1.02,-4,-2,-4,86,0
[15:14:03.448 29/11/2023],-139286,-68170.09,-103427.1,-157282.8,-80539.63,-108168.9,-135872.9,-102977,0.03,0.00,1.02,-4,-2,-4,86,0
[15:14:03.452 29/11/2023],-139296.8,-68187.66,-103454.4,-157310.7,-80577.68,-108188.9,-135887.7,-102997.1,0.03,0.00,1.02,-4,-2,-4,86,0
[15:14:03.456 29/11/2023],-139339.3,-68249.3,-103454,-157338.5,-80555.2,-108213.7,-135894.9,-103006.4,0.03,0.00,1.02,-4,-2,-4,86,0
[15:14:03.460 29/11/2023],-139309.3,-68187.26,-103455.5,-157332.6,-80547.68,-108203.1,-135894,-103005.1,0.03,0.00,1.02,-4,-2,-4,86,0
[15:14:03.464 29/11/2023],-139303.4,-68184.35,-103454.3,-157334.4,-80555.02,-108200.4,-135883.5,-102991.3,0.03,0.00,1.02,-4,-2,-4,86,0
[15:14:03.468 29/11/2023],-139310.2,-68190.3,-103457.3,-157332.8,-80561.85,-108199.2,-135889.3,-102994.6,0.03,0.00,1.02,-4,-2,-4,86,0
[15:14:03.472 29/11/2023],-139313,-68186.32,-103461.8,-157317.8,-80572.45,-108194.8,-135896.2,-103011.5,0.03,0.00,1.02,-4,-2,-4,86,0
[15:14:03.476 29/11/2023],-139291.1,-68177.6,-103441.2,-157317.5,-80538.2,-108191.1,-135882.2,-102979.2,0.05,-0.02,1.00,-4,-2,-4,86,0
[15:14:03.480 29/11/2023],-139278.2,-68154.89,-103431.8,-157294.1,-80550.72,-108175.2,-135862.5,-102978.2,0.05,-0.02,1.00,-4,-2,-4,86,0
[15:14:03.484 29/11/2023],-139291.9,-68160.34,-103448,-157300.7,-80567.04,-108191,-135869.7,-102993.7,0.05,-0.02,1.00,-4,-2,-4,86,0
[15:14:03.488 29/11/2023],-139292.7,-68179.61,-103455.1,-157346.8,-80557.2,-108181,-135881.9,-102995.8,0.05,-0.02,1.00,-4,-2,-4,86,0
[15:14:03.492 29/11/2023],-139299,-68187.62,-103445.5,-157318.5,-80570.21,-108193.7,-135885,-102996.8,0.05,-0.02,1.00,-4,-2,-4,86,0
[15:14:03.496 29/11/2023],-139309.3,-68187.26,-103455.5,-157332.6,-80547.68,-108203.1,-135894,-103005.1,0.05,-0.02,1.00,-4,-2,-4,86,0
[15:14:03.500 29/11/2023],-139303.4,-68184.35,-103454.3,-157334.4,-80555.02,-108200.4,-135883.5,-102991.3,0.05,-0.02,1.00,-4,-2,-4,86,0
[15:14:03.504 29/11/2023],-139310.2,-68190.3,-103457.3,-157332.8,-80561.85,-108199.2,-135889.3,-102994.6,0.05,-0.02,1.00,-4,-2,-4,86,0
[15:14:03.508 29/11/2023],-139317.3,-68176.04,-103460.9,-157334.6,-80582.77,-108202.1,-135898.3,-103020.4,0.05,-0.02,1.00,-4,-2,-4,86,0
[15:14:03.512 29/11/2023],-139313.1,-68180.46,-103467.2,-157344.7,-80541.91,-108202.6,-135889.1,-103015.6,0.05,-0.02,1.00,-4,-2,-4,86,0
[15:14:03.516 29/11/2023],-139302.8,-68159.23,-103455.5,-157326.8,-80574.19,-108193.8,-135889.6,-103005.4,0.05,-0.02,1.00,-4,-2,-4,86,0
[15:14:03.520 29/11/2023],-139307.3,-68155.88,-103446.4,-157311.4,-80575.98,-108199.2,-135894.5,-103003,0.02,0.02,1.00,-4,-2,-4,86,0
[15:14:03.524 29/11/2023],-139323.4,-68171.57,-103465.5,-157329.7,-80576.2,-108211.8,-135896.8,-103004.8,0.02,0.02,1.00,-4,-2,-4,86,0
[15:14:03.528 29/11/2023],-139295.5,-68176.35,-103459.3,-157342.7,-80565.79,-108191.4,-135892.2,-103012.4,0.02,0.02,1.00,-4,-2,-4,86,0
[15:14:03.532 29/11/2023],-139294.6,-68173.66,-103449.8,-157332.5,-80536.06,-108189.3,-135874.4,-102989.1,0.02,0.02,1.00,-4,-2,-4,86,0
[15:14:03.536 29/11/2023],-139298.6,-68166.56,-103450.9,-157325.5,-80535.03,-108199.9,-135883.6,-103003.5,0.02,0.02,1.00,-4,-2,-4,86,0
[15:14:03.540 29/11/2023],-139322.2,-68166.78,-103473.1,-157324.6,-80563.64,-108209.5,-135893.3,-103020.9,0.02,0.02,1.00,-4,-2,-4,86,0
[15:14:03.544 29/11/2023],-139313.6,-68165.22,-103480.3,-157327.8,-80558.99,-108204.5,-135883.1,-103036.1,0.02,0.02,1.00,-4,-2,-4,86,0
[15:14:03.548 29/11/2023],-139299.9,-68156.55,-103458.7,-157340.7,-80542.85,-108187.1,-135872.4,-103013.3,0.02,0.02,1.00,-4,-2,-4,86,0
[15:14:03.552 29/11/2023],-139320.7,-68169.91,-103486.3,-157355.9,-80564.8,-108210.2,-135885.7,-103021.7,0.02,0.02,1.00,-4,-2,-4,86,0
[15:14:03.556 29/11/2023],-139312,-68145.59,-103474.5,-157328.5,-80562.7,-108204.4,-135884,-103017.8,0.02,0.02,1.00,-4,-2,-4,86,0
[15:14:03.560 29/11/2023],-139313.6,-68150.06,-103472.7,-157341.2,-80553.8,-108211.1,-135899,-103010.1,0.02,0.02,1.00,-4,-2,-4,86,0
