Time and date,Fp1,Fp2,F3,F4,T7,T8,F7,F8,AccX,AccY,AccZ,GyroX,GyroY,GyroZ,Battery,Event
[12:38:00.000 29/11/2023],-194317.8,-111203.8,-146441.3,-208000.8,-186054.8,-180871,-202471.3,-158274.7,0.03,0.00,1.02,-4,-2,-4,89,0
[12:38:00.004 29/11/2023],-194317.1,-111210.4,-146439.7,-208006.2,-186081,-180884.7,-202472,-158273.3,0.03,0.00,1.02,-4,-2,-4,89,0
[12:38:00.008 29/11/2023],-194317.9,-111218.3,-146422,-207996.7,-186067.9,-180870.5,-202455.4,-158271.5,0.03,0.00,1.02,-4,-2,-4,89,0
[12:38:00.012 29/11/2023],-194330.8,-111234.6,-146420.9,-208002.5,-186054.1,-180842.3,-202449,-158275.3,0.03,0.00,1.02,-4,-2,-4,89,0
[12:38:00.016 29/11/2023],-194339.9,-111263.4,-146451.6,-208019.3,-186070.6,-180870.4,-202477.2,-158293.5,0.03,0.00,1.02,-4,-2,-4,89,0
[12:38:00.020 29/11/2023],-194351.9,-111268.7,-146473.9,-208031,-186085.5,-180896.1,-202499.8,-158308.8,0.03,0.00,1.02,-4,-2,-4,89,0
[12:38:00.024 29/11/2023],-194359.7,-111265.6,-146481.7,-208039.7,-186100.1,-180910.5,-202499.6,-158312.8,0.03,0.00,1.02,-4,-2,-4,89,0
[12:38:00.028 29/11/2023],-194320.1,-111235.1,-146455.8,-208019.1,-186075.9,-180868.7,-202462.4,-158286.1,0.03,0.00,1.02,-4,-2,-4,89,0
[12:38:00.032 29/11/2023],-194321,-111250.1,-146456.8,-208022.7,-186082.2,-180870.9,-202474.6,-158293,0.03,0.00,1.02,-4,-2,-4,89,0
[12:38:00.036 29/11/2023],-194317.8,-111203.8,-146441.3,-208000.8,-186054.8,-180871,-202471.3,-158274.7,0.03,0.00,1.02,-4,-2,-4,89,0
[12:38:00.040 29/11/2023],-194317.1,-111210.4,-146439.7,-208006.2,-186081,-180884.7,-202472,-158273.3,0.03,0.00,1.02,-4,-2,-4,89,0
[12:38:00.044 29/11/2023],-194317.9,-111218.3,-146422,-207996.7,-186067.9,-180870.5,-202455.4,-158271.5,0.03,0.00,1.02,-4,-2,-4,89,0
[12:38:00.048 29/11/2023],-194330.8,-111234.6,-146420.9,-208002.5,-186054.1,-180842.3,-202449,-158275.3,0.03,0.00,1.02,-4,-2,-4,89,0
[12:38:00.052 29/11/2023],-194339.9,-111263.4,-146451.6,-208019.3,-186070.6,-180870.4,-202477.2,-158293.5,0.03,0.00,1.02,-4,-2,-4,89,0
[12:38:00.056 29/11/2023],-194351.9,-111268.7,-146473.9,-208031,-186085.5,-180896.1,-202499.8,-158308.8,0.03,0.00,1.02,-4,-2,-4,89,0
[12:38:00.060 29/11/2023],-194359.7,-111265.6,-146481.7,-208039.7,-186100.1,-180910.5,-202499.6,-158312.8,0.03,0.00,1.02,-4,-2,-4,89,0
[12:38:00.064 29/11/2023],-194320.1,-111235.1,-146455.8,-208019.1,-186075.9,-180868.7,-202462.4,-158286.1,0.03,0.00,1.02,-4,-2,-4,89,0
[12:38:00.068 29/11/2023],-194321,-111250.1,-146456.8,-208022.7,-186082.2,-180870.9,-202474.6,-158293,0.03,0.00,1.02,-4,-2,-4,89,0
[12:38:00.072 29/11/2023],-194355.4,-111257.5,-146467.1,-208022.6,-186092.3,-180882.3,-202498.7,-158308.1,0.05,0.00,1.02,-4,-2,-4,89,0
[12:38:00.076 29/11/2023],-194344.8,-111224.6,-146442.8,-208002.5,-186070.6,-180858.2,-202472.5,-158274.2,0.05,0.00,1.02,-4,-2,-4,89,0
[12:38:00.080 29/11/2023],-194316.2,-111218.5,-146425.6,-207992.7,-186066.6,-180857.8,-202455.2,-158262.6,0.05,0.00,1.02,-4,-2,-4,89,0
[12:38:00.084 29/11/2023],-194319.7,-111228.5,-146422.8,-207997.8,-186053.1,-180870.1,-202463.6,-158270.6,0.05,0.00,1.02,-4,-2,-4,89,0
[12:38:00.088 29/11/2023],-194326.5,-111228.3,-146436.4,-208000.5,-186048.5,-180859.1,-202473.9,-158274,0.05,0.00,1.02,-4,-2,-4,89,0
[12:38:00.092 29/11/2023],-194333.6,-111219.3,-146445.8,-207999.1,-186059.6,-180837.8,-202478.8,-158274.5,0.05,0.00,1.02,-4,-2,-4,89,0
[12:38:00.096 29/11/2023],-194328.6,-111219.5,-146440.2,-207999.6,-186065.5,-180832.8,-202472.8,-158267,0.05,0.00,1.02,-4,-2,-4,89,0
[12:38:00.100 29/11/2023],-194349.1,-111237.7,-146469.9,-208025.5,-186090.8,-180868.7,-202494.1,-158289.5,0.05,0.00,1.02,-4,-2,-4,89,0
[12:38:00.104 29/11/2023],-194352.9,-111249.7,-146486.4,-208045.4,-186108.2,-180890.1,-202505.1,-158302.8,0.05,0.00,1.02,-4,-2,-4,89,0
[12:38:00.108 29/11/2023],-194344.3,-111247.8,-146475.5,-208028,-186105.8,-180876.8,-202491.7,-158295.9,0.05,0.00,1.02,-4,-2,-4,89,0
[12:38:00.112 29/11/2023],-194368.2,-111264.7,-146485.5,-208034.8,-186124.1,-180894.9,-202506.3,-158314.6,0.05,0.00,1.02,-4,-2,-4,89,0
[12:38:00.116 29/11/2023],-194375.3,-111277.9,-146488,-208046.1,-186130.1,-180891.8,-202518.6,-158321.2,0.05,0.00,1.02,-4,-2,-4,89,0
[12:38:00.120 29/11/2023],-194367.5,-111275.8,-146495.8,-208048.5,-186131,-180894.5,-202520.5,-158319.1,0.05,0.00,1.02,-4,-2,-4,89,0
[12:38:00.124 29/11/2023],-194346.5,-111259.9,-146477.7,-208037.8,-186101.2,-180897.5,-202505.4,-158305.4,0.05,0.00,1.02,-4,-2,-4,89,0
[12:38:00.128 29/11/2023],-194336.9,-111236.6,-146457.8,-208025.6,-186082.7,-180880.1,-202484,-158285.1,0.05,0.00,1.02,-4,-2,-4,89,0
[12:38:00.132 29/11/2023],-194333.3,-111221,-146446.3,-208015.9,-186058.1,-180862.2,-202479.6,-158277.9,0.05,0.00,1.02,-4,-2,-4,89,0
[12:38:00.136 29/11/2023],-194345.3,-111239.5,-146467.4,-208026.7,-186061.3,-180871.6,-202499.8,-158296.1,0.05,0.00,1.02,-4,-2,-4,89,0
[12:38:00.140 29/11/2023],-194336.7,-111242.9,-146471.4,-208029,-186076.3,-180886.3,-202496.5,-158298.2,0.05,0.00,1.02,-4,-2,-4,89,0
[12:38:00.144 29/11/2023],-194341,-111225.5,-146450.1,-208011.7,-186083.6,-180867,-202475,-158274,0.03,-0.02,1.00,-4,-2,-4,89,0
[12:38:00.148 29/11/2023],-194334.7,-111210.2,-146437.5,-207991.9,-186079.5,-180830.4,-202455.7,-158252.6,0.03,-0.02,1.00,-4,-2,-4,89,0
[12:38:00.152 29/11/2023],-194322.4,-111206.4,-146435,-207991,-186078.1,-180829.9,-202454.7,-158251.5,0.03,-0.02,1.00,-4,-2,-4,89,0
[12:38:00.156 29/11/2023],-194333.3,-111224.7,-146443.1,-208008.1,-186091.9,-180856.7,-202472.1,-158273.9,0.03,-0.02,1.00,-4,-2,-4,89,0
[12:38:00.160 29/11/2023],-194349.1,-111237.2,-146447.7,-208005.1,-186093.1,-180864.4,-202482.3,-158279.5,0.03,-0.02,1.00,-4,-2,-4,89,0
[12:38:00.164 29/11/2023],-194335.7,-111230,-146450.2,-207997.7,-186060,-180851.8,-202477.1,-158272.9,0.03,-0.02,1.00,-4,-2,-4,89,0
[12:38:00.168 29/11/2023],-194347.2,-111235.1,-146467.3,-208018.4,-186086.6,-180868.8,-202499.2,-158288.3,0.03,-0.02,1.00,-4,-2,-4,89,0
[12:38:00.172 29/11/2023],-194368.9,-111251.7,-146489.1,-208048,-186106.4,-180875,-202521.9,-158313.6,0.03,-0.02,1.00,-4,-2,-4,89,0
[12:38:00.176 29/11/2023],-194362.8,-111246.4,-146477.4,-208042.8,-186103.1,-180868.8,-202515.3,-158315.3,0.03,-0.02,1.00,-4,-2,-4,89,0
[12:38:00.180 29/11/2023],-194327.8,-111212.4,-146451.9,-208014.8,-186079,-180852.3,-202486.4,-158284.6,0.03,0.00,1.02,-4,-2,-4,89,0
[12:38:00.184 29/11/2023],-194323.7,-111222.7,-146452.8,-208007.7,-186083.4,-180858.7,-202484.4,-158282.8,0.03,0.00,1.02,-4,-2,-4,89,0
[12:38:00.188 29/11/2023],-194330.8,-111234.7,-146446.3,-208011.1,-186104.5,-180864.6,-202485.5,-158290,0.03,0.00,1.02,-4,-2,-4,89,0
[12:38:00.192 29/11/2023],-194333.6,-111232.8,-146440.7,-208011,-186086.4,-180886,-202485.1,-158293,0.03,0.00,1.02,-4,-2,-4,89,0
[12:38:00.196 29/11/2023],-194304.3,-111201.2,-146411.5,-207981.5,-186058.3,-180849.3,-202454.3,-158266.9,0.03,0.00,1.02,-4,-2,-4,89,0
[12:38:00.200 29/11/2023],-194295,-111193.2,-146420.2,-207977.9,-186061.1,-180833.9,-202450.4,-158255.5,0.03,0.00,1.02,-4,-2,-4,89,0
[12:38:00.204 29/11/2023],-194312.1,-111211.8,-146438.5,-207993.9,-186091,-180856,-202471.8,-158269.6,0.03,0.00,1.02,-4,-2,-4,89,0
[12:38:00.208 29/11/2023],-194329.5,-111222.7,-146445.5,-208009.9,-186097.7,-180861.2,-202486.2,-158285.8,0.03,0.00,1.02,-4,-2,-4,89,0
[12:38:00.212 29/11/2023],-194317.7,-111203.9,-146426.1,-207989,-186070.2,-180825.5,-202466,-158271,0.03,0.00,1.02,-4,-2,-4,89,0
[12:38:00.216 29/11/2023],-194317.1,-111198.7,-146426.9,-207991.5,-186070.8,-180834.9,-202464.5,-158266.3,0.05,0.00,1.00,-4,-2,-4,89,0
[12:38:00.220 29/11/2023],-194341.2,-111202.2,-146443.5,-208011.6,-186073.5,-180851.5,-202475.6,-158283.8,0.05,0.00,1.00,-4,-2,-4,89,0
[12:38:00.224 29/11/2023],-194329.6,-111201.7,-146442.1,-208000,-186054,-180829.8,-202469.6,-158278.3,0.05,0.00,1.00,-4,-2,-4,89,0
[12:38:00.228 29/11/2023],-194299.6,-111196.5,-146427.4,-207993.9,-186047.9,-180834.3,-202459,-158265.5,0.05,0.00,1.00,-4,-2,-4,89,0
[12:38:00.232 29/11/2023],-194282.9,-111184.9,-146420.1,-207987.7,-186045.9,-180818.8,-202451.8,-158252.9,0.05,0.00,1.00,-4,-2,-4,89,0
[12:38:00.236 29/11/2023],-194306.7,-111211.4,-146434.6,-208000.1,-186087.6,-180835.8,-202471.5,-158269.6,0.05,0.00,1.00,-4,-2,-4,89,0
[12:38:00.240 29/11/2023],-194320.5,-111221.8,-146436,-207999.9,-186080,-180850,-202476.2,-158275.7,0.05,0.00,1.00,-4,-2,-4,89,0
[12:38:00.244 29/11/2023],-194307.8,-111204.3,-146420.2,-207988.7,-186060.9,-180832.7,-202462.9,-158265.5,0.05,0.00,1.00,-4,-2,-4,89,0
[12:38:00.248 29/11/2023],-194298.2,-111186.9,-146416.7,-207977.4,-186059.4,-180835.1,-202455.8,-158255.8,0.05,0.00,1.00,-4,-2,-4,89,0
[12:38:00.252 29/11/2023],-194306.7,-111191.7,-146435.1,-207990.8,-186056.6,-180843.1,-202470.8,-158271.5,0.05,0.00,1.02,-4,-2,-4,89,0
[12:38:00.256 29/11/2023],-194316.5,-111198.6,-146442.8,-208004.3,-186062.6,-180837.1,-202480.6,-158279.1,0.05,0.00,1.02,-4,-2,-4,89,0
[12:38:00.260 29/11/2023],-194307.1,-111184.8,-146427,-207988.7,-186061.8,-180817.7,-202463.6,-158264,0.05,0.00,1.02,-4,-2,-4,89,0
[12:38:00.264 29/11/2023],-194287.9,-111168.3,-146407.5,-207965.9,-186050.1,-180793.2,-202443,-158242.5,0.05,0.00,1.02,-4,-2,-4,89,0
[12:38:00.268 29/11/2023],-194295,-111176.8,-146416.2,-207964.9,-186054,-180808.4,-202454.1,-158248.6,0.05,0.00,1.02,-4,-2,-4,89,0
[12:38:00.272 29/11/2023],-194282,-111170.3,-146402.8,-207961,-186043.2,-180821,-202443.9,-158246.1,0.05,0.00,1.02,-4,-2,-4,89,0
[12:38:00.276 29/11/2023],-194259.2,-111162.4,-146396.2,-207964.4,-186014.2,-180818.6,-202432.9,-158239.9,0.05,0.00,1.02,-4,-2,-4,89,0
[12:38:00.280 29/11/2023],-194251.7,-111147.3,-146393.7,-207961.4,-186019,-180787.8,-202426.8,-158229.3,0.05,0.00,1.02,-4,-2,-4,89,0
[12:38:00.284 29/11/2023],-194278,-111157.9,-146406.5,-207972.6,-186050.5,-180809.8,-202443.4,-158245.7,0.05,0.00,1.02,-4,-2,-4,89,0
[12:38:00.288 29/11/2023],-194308.6,-111181.9,-146420.9,-207984.7,-186081.3,-180844.9,-202464.2,-158263,0.03,0.00,1.02,-4,-2,-4,89,0
[12:38:00.292 29/11/2023],-194312.4,-111198.4,-146424.6,-207995.2,-186086.6,-180858.1,-202465.6,-158263.5,0.03,0.00,1.02,-4,-2,-4,89,0
[12:38:00.296 29/11/2023],-194275.6,-111171.9,-146399.3,-207967.8,-186045.9,-180818.5,-202438.1,-158248.7,0.03,0.00,1.02,-4,-2,-4,89,0
[12:38:00.300 29/11/2023],-194279.8,-111159.9,-146389,-207952,-186021.9,-180804.6,-202433.7,-158235.4,0.03,0.00,1.02,-4,-2,-4,89,0
[12:38:00.304 29/11/2023],-194301.9,-111165.5,-146400.4,-207977.1,-186023.6,-180815.4,-202445.8,-158250.1,0.03,0.00,1.02,-4,-2,-4,89,0
[12:38:00.308 29/11/2023],-194304.6,-111168.8,-146414.8,-207992.4,-186041.5,-180816.8,-202456.9,-158263.5,0.03,0.00,1.02,-4,-2,-4,89,0
[12:38:00.312 29/11/2023],-194284,-111166.8,-146412.2,-207976.1,-186029.6,-180825.6,-202449.2,-158257.7,0.03,0.00,1.02,-4,-2,-4,89,0
[12:38:00.316 29/11/2023],-194263.8,-111168.8,-146401.3,-207973.1,-186044.7,-180841.4,-202443,-158252.5,0.03,0.00,1.02,-4,-2,-4,89,0
[12:38:00.320 29/11/2023],-194261.5,-111162.1,-146386.1,-207980.1,-186073.7,-180799.4,-202438.5,-158249.8,0.03,0.00,1.02,-4,-2,-4,89,0
[12:38:00.324 29/11/2023],-194275.9,-111172.2,-146393.4,-207978.5,-186057.5,-180798.5,-202432.6,-158247.3,0.05,0.00,1.02,-4,-2,-4,89,0
[12:38:00.328 29/11/2023],-194299.6,-111185.9,-146416.8,-207982.5,-186053.5,-180841.3,-202448.3,-158257.7,0.05,0.00,1.02,-4,-2,-4,89,0
[12:38:00.332 29/11/2023],-194303.8,-111179.7,-146417,-207975.8,-186055.7,-180835.1,-202453.3,-158253.8,0.05,0.00,1.02,-4,-2,-4,89,0
[12:38:00.336 29/11/2023],-194305.5,-111172.8,-146405.5,-207977.4,-186044.9,-180817.7,-202452.2,-158249.7,0.05,0.00,1.02,-4,-2,-4,89,0
[12:38:00.340 29/11/2023],-194312.5,-111182.1,-146416.3,-207984.6,-186036.9,-180835.2,-202459.5,-158262.6,0.05,0.00,1.02,-4,-2,-4,89,0
[12:38:00.344 29/11/2023],-194294.4,-111169.9,-146412.7,-207981.6,-186033.5,-180826.9,-202448.2,-158249.4,0.05,0.00,1.02,-4,-2,-4,89,0
[12:38:00.348 29/11/2023],-194285.8,-111159.5,-146409.2,-207977.5,-186034.5,-180806.9,-202445.5,-158248.6,0.05,0.00,1.02,-4,-2,-4,89,0
[12:38:00.352 29/11/2023],-194296.3,-111176.6,-146419.3,-207976.9,-186056.5,-180836.8,-202457.3,-158259.8,0.05,0.00,1.02,-4,-2,-4,89,0
[12:38:00.356 29/11/2023],-194292.7,-111188.8,-146415.7,-207981.5,-186066.6,-180831.2,-202457.9,-158263,0.05,0.00,1.02,-4,-2,-4,89,0
[12:38:00.360 29/11/2023],-194288.1,-111169.9,-146414.3,-207979.9,-186045.7,-180828.6,-202448.7,-158252.1,0.05,0.02,1.02,-4,-2,-4,89,0
[12:38:00.364 29/11/2023],-194268.7,-111138.5,-146393.9,-207963.6,-186035.8,-180814.6,-202425.9,-158223,0.05,0.02,1.02,-4,-2,-4,89,0
[12:38:00.368 29/11/2023],-194277.6,-111160.5,-146410.5,-207986.9,-186042.8,-180823.3,-202441.5,-158241.1,0.05,0.02,1.02,-4,-2,-4,89,0
[12:38:00.372 29/11/2023],-194298.2,-111180,-146425,-207993.1,-186055.9,-180841.1,-202457.8,-158257.8,0.05,0.02,1.02,-4,-2,-4,89,0
[12:38:00.376 29/11/2023],-194296.4,-111177.3,-146412.7,-207981,-186049.6,-180826.8,-202448.1,-158255.9,0.05,0.02,1.02,-4,-2,-4,89,0
[12:38:00.380 29/11/2023],-194253.6,-111139.1,-146370.2,-207937.3,-185999.5,-180785.9,-202401.6,-158211.6,0.05,0.02,1.02,-4,-2,-4,89,0
[12:38:00.384 29/11/2023],-194265.8,-111143.6,-146377.4,-207935.6,-186003.9,-180789.2,-202407,-158216,0.05,0.02,1.02,-4,-2,-4,89,0
[12:38:00.388 29/11/2023],-194278.7,-111149.9,-146387,-207949.8,-186024.5,-180787.9,-202418.5,-158224.7,0.05,0.02,1.02,-4,-2,-4,89,0
[12:38:00.392 29/11/2023],-194283.2,-111152,-146383.2,-207964.5,-186025.4,-180808.8,-202426.4,-158228.4,0.05,0.02,1.02,-4,-2,-4,89,0
[12:38:00.396 29/11/2023],-194264.3,-111129.6,-146364.2,-207952.1,-186030.4,-180797.7,-202414,-158215.3,0.05,0.00,1.02,-4,-2,-4,89,0
[12:38:00.400 29/11/2023],-194260.3,-111118.9,-146362.4,-207937,-186016.3,-180775.1,-202408.9,-158210,0.05,0.00,1.02,-4,-2,-4,89,0
[12:38:00.404 29/11/2023],-194260.2,-111134.4,-146370.6,-207938.7,-185997.4,-180796.8,-202413.2,-158217.4,0.05,0.00,1.02,-4,-2,-4,89,0
[12:38:00.408 29/11/2023],-194263.7,-111145.1,-146385.1,-207955,-186012.1,-180804.8,-202424.5,-158228,0.05,0.00,1.02,-4,-2,-4,89,0
[12:38:00.412 29/11/2023],-194253.4,-111140.6,-146372.3,-207943.6,-186021.9,-180781.3,-202413.9,-158213,0.05,0.00,1.02,-4,-2,-4,89,0
[12:38:00.416 29/11/2023],-194244.5,-111129.1,-146359.3,-207921.4,-186002.5,-180796.5,-202398.8,-158200.5,0.05,0.00,1.02,-4,-2,-4,89,0
[12:38:00.420 29/11/2023],-194255,-111122.2,-146363.6,-207920.7,-186009.5,-180792.6,-202399.6,-158200.6,0.05,0.00,1.02,-4,-2,-4,89,0
[12:38:00.424 29/11/2023],-194256.5,-111111.1,-146354.1,-207918.8,-185993.4,-180781.1,-202389.9,-158193.8,0.05,0.00,1.02,-4,-2,-4,89,0
[12:38:00.428 29/11/2023],-194231.1,-111108.1,-146342.9,-207913.2,-185989,-180773.3,-202374.4,-158183.2,0.05,0.00,1.02,-4,-2,-4,89,0
[12:38:00.432 29/11/2023],-194215,-111099.6,-146327.1,-207899.8,-186000.3,-180764.3,-202368.8,-158168,0.03,0.00,1.02,-4,-2,-4,89,0
[12:38:00.436 29/11/2023],-194228.7,-111110.7,-146344.4,-207913.1,-185997.4,-180766.1,-202387,-158178.5,0.03,0.00,1.02,-4,-2,-4,89,0
[12:38:00.440 29/11/2023],-194230.6,-111108.2,-146345.9,-207919.3,-185985.5,-180762.4,-202384.1,-158180.4,0.03,0.00,1.02,-4,-2,-4,89,0
[12:38:00.444 29/11/2023],-194249.6,-111129.5,-146356.3,-207937.8,-186008.6,-180770.8,-202394.6,-158197.7,0.03,0.00,1.02,-4,-2,-4,89,0
[12:38:00.448 29/11/2023],-194262.9,-111132.9,-146360.4,-207936.9,-186010.7,-180789.5,-202398.2,-158203.9,0.03,0.00,1.02,-4,-2,-4,89,0
[12:38:00.452 29/11/2023],-194244,-111113.5,-146354.9,-207917.1,-185998.1,-180783.8,-202383.7,-158188.1,0.03,0.00,1.02,-4,-2,-4,89,0
[12:38:00.456 29/11/2023],-194216.8,-111095,-146332.4,-207896,-185980.6,-180759.4,-202367.1,-158162.1,0.03,0.00,1.02,-4,-2,-4,89,0
[12:38:00.460 29/11/2023],-194198.4,-111068.4,-146295.7,-207873.5,-185962,-180747.7,-202347.6,-158142.8,0.03,0.00,1.02,-4,-2,-4,89,0
[12:38:00.464 29/11/2023],-194202.9,-111059.1,-146298.3,-207870.2,-185954.4,-180745,-202350.6,-158140.2,0.03,0.00,1.02,-4,-2,-4,89,0
[12:38:00.468 29/11/2023],-194224.8,-111081.1,-146325.7,-207898.1,-185967,-180750.3,-202374.8,-158162.1,0.03,0.00,1.02,-4,-2,-4,89,0
[12:38:00.472 29/11/2023],-194236.9,-111101.3,-146342.8,-207914,-186002.3,-180750.5,-202389.8,-158177.3,0.03,0.00,1.02,-4,-2,-4,89,0
[12:38:00.476 29/11/2023],-194234.4,-111111,-146351.7,-207919.5,-186003.7,-180779.7,-202394.1,-158186.8,0.03,0.00,1.02,-4,-2,-4,89,0
[12:38:00.480 29/11/2023],-194214.7,-111090,-146340.5,-207907.7,-186014.4,-180781.9,-202380.1,-158177.6,0.03,0.00,1.02,-4,-2,-4,89,0
[12:38:00.484 29/11/2023],-194196.8,-111075,-146332,-207899.8,-186002.8,-180756.4,-202371.8,-158169.3,0.03,0.00,1.02,-4,-2,-4,89,0
[12:38:00.488 29/11/2023],-194235.4,-111113.2,-146358.1,-207930.5,-185982,-180756.6,-202393.1,-158191.2,0.03,0.00,1.02,-4,-2,-4,89,0
[12:38:00.492 29/11/2023],-194252.8,-111116.6,-146354.1,-207911.9,-185986.7,-180773.7,-202389.9,-158185.2,0.03,0.00,1.02,-4,-2,-4,89,0
[12:38:00.496 29/11/2023],-194228.5,-111089.8,-146330,-207894,-185999.4,-180766.9,-202365.8,-158166.6,0.03,0.00,1.02,-4,-2,-4,89,0
[12:38:00.500 29/11/2023],-194227.9,-111087.1,-146335.6,-207904.1,-185992.8,-180762.8,-202371.2,-158164,0.03,0.00,1.02,-4,-2,-4,89,0
[12:38:00.504 29/11/2023],-194228.6,-111093.8,-146340,-207902.2,-185990.7,-180739,-202386.1,-158174.2,0.05,0.00,1.00,-4,-2,-4,89,0
[12:38:00.508 29/11/2023],-194259.9,-111134.5,-146368.5,-207933.7,-186025.5,-180795.3,-202414.1,-158210.8,0.05,0.00,1.00,-4,-2,-4,89,0
[12:38:00.512 29/11/2023],-194256.3,-111131.2,-146365.3,-207938.1,-186027.7,-180790.8,-202410,-158206.6,0.05,0.00,1.00,-4,-2,-4,89,0
[12:38:00.516 29/11/2023],-194236.5,-111109.3,-146355.6,-207924.3,-186005.2,-180776.3,-202398.7,-158191.8,0.05,0.00,1.00,-4,-2,-4,89,0
[12:38:00.520 29/11/2023],-194225.1,-111106.2,-146350.1,-207920.4,-186000,-180778.9,-202390.7,-158191.2,0.05,0.00,1.00,-4,-2,-4,89,0
[12:38:00.524 29/11/2023],-194205.5,-111090.6,-146323.1,-207900.6,-185972.8,-180732.7,-202368.1,-158175.3,0.05,0.00,1.00,-4,-2,-4,89,0
[12:38:00.528 29/11/2023],-194211.4,-111088.2,-146322.3,-207897.5,-185957.8,-180754.2,-202368.6,-158173,0.05,0.00,1.00,-4,-2,-4,89,0
[12:38:00.532 29/11/2023],-194221.8,-111096.9,-146334.9,-207900.6,-185966.5,-180789.2,-202377.7,-158180.4,0.05,0.00,1.00,-4,-2,-4,89,0
[12:38:00.536 29/11/2023],-194229.4,-111102.4,-146350.2,-207917.2,-185999.5,-180792.1,-202391.3,-158196.8,0.05,0.00,1.00,-4,-2,-4,89,0
[12:38:00.540 29/11/2023],-194250.9,-111120.2,-146365.6,-207936.6,-186024.5,-180803.7,-202411,-158218,0.03,0.00,1.02,-4,-2,-4,89,0
[12:38:00.544 29/11/2023],-194262.9,-111126.9,-146364,-207941.5,-186034.2,-180804.6,-202413.5,-158220.9,0.03,0.00,1.02,-4,-2,-4,89,0
[12:38:00.548 29/11/2023],-194266,-111125.1,-146374.1,-207951.5,-186014.5,-180789.3,-202421.2,-158223.3,0.03,0.00,1.02,-4,-2,-4,89,0
[12:38:00.552 29/11/2023],-194276,-111140.6,-146388.6,-207957.1,-186036,-180814,-202431.5,-158222.9,0.03,0.00,1.02,-4,-2,-4,89,0
[12:38:00.556 29/11/2023],-194255.7,-111139.4,-146376.2,-207943.5,-186037.4,-180807.8,-202416.8,-158216.3,0.03,0.00,1.02,-4,-2,-4,89,0
[12:38:00.560 29/11/2023],-194244.8,-111128.9,-146373.6,-207930.4,-186034.7,-180824.3,-202409.5,-158215,0.03,0.00,1.02,-4,-2,-4,89,0
[12:38:00.564 29/11/2023],-194238.5,-111097.7,-146354,-207913.1,-186017,-180792.5,-202393.1,-158195.8,0.03,0.00,1.02,-4,-2,-4,89,0
[12:38:00.568 29/11/2023],-194240,-111107.5,-146353.7,-207916.5,-186004,-180797.8,-202392.8,-158197.4,0.03,0.00,1.02,-4,-2,-4,89,0
[12:38:00.572 29/11/2023],-194241.1,-111127.1,-146352.4,-207917.1,-186018.3,-180818.2,-202398.3,-158199.7,0.03,0.00,1.02,-4,-2,-4,89,0
[12:38:00.576 29/11/2023],-194275.8,-111156.5,-146385.5,-207943,-186024.5,-180844.7,-202424,-158229.3,0.05,0.00,1.02,-4,-2,-4,89,0
[12:38:00.580 29/11/2023],-194258.4,-111133.6,-146375.8,-207926.7,-186010.4,-180822.2,-202403.7,-158210.5,0.05,0.00,1.02,-4,-2,-4,89,0
[12:38:00.584 29/11/2023],-194252.9,-111119.4,-146369.9,-207924.5,-186027.2,-180818.3,-202400.2,-158209.1,0.05,0.00,1.02,-4,-2,-4,89,0
[12:38:00.588 29/11/2023],-194251.4,-111115.8,-146366.1,-207930.3,-186035.9,-180824.6,-202407.5,-158214.9,0.05,0.00,1.02,-4,-2,-4,89,0
[12:38:00.592 29/11/2023],-194229.5,-111105.6,-146349.3,-207917.1,-186017.3,-180791.7,-202392.4,-158197.7,0.05,0.00,1.02,-4,-2,-4,89,0
[12:38:00.596 29/11/2023],-194213.8,-111106.3,-146337.4,-207906.1,-185996.2,-180786.1,-202377.1,-158186.3,0.05,0.00,1.02,-4,-2,-4,89,0
[12:38:00.600 29/11/2023],-194207.2,-111098,-146337.8,-207883,-185977.1,-180781.1,-202368.6,-158176.8,0.05,0.00,1.02,-4,-2,-4,89,0
[12:38:00.604 29/11/2023],-194216.3,-111081.7,-146330.5,-207884.4,-185975.6,-180766,-202367.3,-158167.1,0.05,0.00,1.02,-4,-2,-4,89,0
[12:38:00.608 29/11/2023],-194221.5,-111072.7,-146325.2,-207887.3,-185985.5,-180780.7,-202369.3,-158161,0.05,0.00,1.02,-4,-2,-4,89,0
[12:38:00.612 29/11/2023],-194197.8,-111066.1,-146303.8,-207865.5,-185979.4,-180757.3,-202351.5,-158145.8,0.03,0.00,1.02,-4,-2,-4,89,0
[12:38:00.616 29/11/2023],-194197.7,-111081,-146300,-207863.5,-185976.3,-180762.2,-202352.3,-158147.8,0.03,0.00,1.02,-4,-2,-4,89,0
[12:38:00.620 29/11/2023],-194215.6,-111099.5,-146319.4,-207889.9,-185990.2,-180764.3,-202370.1,-158164.5,0.03,0.00,1.02,-4,-2,-4,89,0
[12:38:00.624 29/11/2023],-194214.7,-111082.1,-146310.2,-207878.7,-185981.1,-180760.4,-202357.5,-158159.2,0.03,0.00,1.02,-4,-2,-4,89,0
[12:38:00.628 29/11/2023],-194202.9,-111054.5,-146302.8,-207859.1,-185976.6,-180740.5,-202339.9,-158139.9,0.03,0.00,1.02,-4,-2,-4,89,0
[12:38:00.632 29/11/2023],-194217.8,-111076.1,-146322.1,-207886.8,-185962.8,-180743.6,-202362.4,-158164.5,0.03,0.00,1.02,-4,-2,-4,89,0
[12:38:00.636 29/11/2023],-194213.3,-111085.6,-146335.8,-207893.8,-185971.7,-180762.4,-202368.9,-158184,0.03,0.00,1.02,-4,-2,-4,89,0
[12:38:00.640 29/11/2023],-194201.4,-111080.5,-146333.6,-207886.1,-185996.6,-180763.9,-202357,-158174.9,0.03,0.00,1.02,-4,-2,-4,89,0
[12:38:00.644 29/11/2023],-194188.9,-111063.4,-146311.6,-207865.7,-185976.8,-180748.5,-202340,-158152.9,0.03,0.00,1.02,-4,-2,-4,89,0
[12:38:00.648 29/11/2023],-194164,-111060.4,-146274.5,-207851.5,-185947.3,-180743.3,-202326.3,-158138.4,0.05,-0.02,1.02,-4,-2,-4,89,0
[12:38:00.652 29/11/2023],-194184,-111074.5,-146305.8,-207866.3,-185936.8,-180749.4,-202347.1,-158157,0.05,-0.02,1.02,-4,-2,-4,89,0
[12:38:00.656 29/11/2023],-194227.1,-111098.9,-146337.8,-207886.9,-185973.5,-180763.2,-202374.8,-158184.3,0.05,-0.02,1.02,-4,-2,-4,89,0
[12:38:00.660 29/11/2023],-194224.3,-111079.6,-146326.2,-207875.1,-185997.1,-180767.7,-202364.2,-158167.2,0.05,-0.02,1.02,-4,-2,-4,89,0
[12:38:00.664 29/11/2023],-194202.9,-111054.5,-146302.8,-207859.1,-185976.6,-180740.5,-202339.9,-158139.9,0.05,-0.02,1.02,-4,-2,-4,89,0
[12:38:00.668 29/11/2023],-194217.8,-111076.1,-146322.1,-207886.8,-185962.8,-180743.6,-202362.4,-158164.5,0.05,-0.02,1.02,-4,-2,-4,89,0
[12:38:00.672 29/11/2023],-194213.3,-111085.6,-146335.8,-207893.8,-185971.7,-180762.4,-202368.9,-158184,0.05,-0.02,1.02,-4,-2,-4,89,0
[12:38:00.676 29/11/2023],-194201.4,-111080.5,-146333.6,-207886.1,-185996.6,-180763.9,-202357,-158174.9,0.05,-0.02,1.02,-4,-2,-4,89,0
[12:38:00.680 29/11/2023],-194188.9,-111063.4,-146311.6,-207865.7,-185976.8,-180748.5,-202340,-158152.9,0.05,-0.02,1.02,-4,-2,-4,89,0
[12:38:00.684 29/11/2023],-194198.9,-111058,-146302.7,-207860.4,-185972.7,-180752.8,-202344.8,-158153.2,0.05,0.00,1.02,-4,-2,-4,89,0
[12:38:00.688 29/11/2023],-194199.2,-111070.4,-146313,-207863,-185966.4,-180747,-202348.9,-158153.2,0.05,0.00,1.02,-4,-2,-4,89,0
[12:38:00.692 29/11/2023],-194220.1,-111092.4,-146340.9,-207876.5,-185970.9,-180758.6,-202365,-158171.6,0.05,0.00,1.02,-4,-2,-4,89,0
[12:38:00.696 29/11/2023],-194211.6,-111078.4,-146325.2,-207871.5,-185973.9,-180752.3,-202356.1,-158163.8,0.05,0.00,1.02,-4,-2,-4,89,0
[12:38:00.700 29/11/2023],-194222.2,-111086.2,-146323,-207890.5,-185981.3,-180756,-202364.9,-158169.9,0.05,0.00,1.02,-4,-2,-4,89,0
[12:38:00.704 29/11/2023],-194234.9,-111086.7,-146328.4,-207889.9,-185978.4,-180773.3,-202368.9,-158175.8,0.05,0.00,1.02,-4,-2,-4,89,0
[12:38:00.708 29/11/2023],-194235,-111082.3,-146326.6,-207885.6,-185962.1,-180747.2,-202366.8,-158172.7,0.05,0.00,1.02,-4,-2,-4,89,0
[12:38:00.712 29/11/2023],-194220.7,-111066.3,-146321.3,-207882.4,-185964.5,-180747.9,-202357.1,-158162.8,0.05,0.00,1.02,-4,-2,-4,89,0
[12:38:00.716 29/11/2023],-194216.1,-111071.3,-146324.5,-207878.7,-185964.9,-180752.7,-202360.2,-158159.5,0.05,0.00,1.02,-4,-2,-4,89,0
[12:38:00.720 29/11/2023],-194216.8,-111085.4,-146333.4,-207881.8,-185978.2,-180746.3,-202364.4,-158162.9,0.05,0.00,1.00,-4,-2,-4,89,0
[12:38:00.724 29/11/2023],-194216.5,-111097.4,-146348.2,-207892,-185998.6,-180758.1,-202369.8,-158176.8,0.05,0.00,1.00,-4,-2,-4,89,0
[12:38:00.728 29/11/2023],-194203.8,-111074.1,-146333.8,-207880.6,-185971.9,-180766.1,-202352.4,-158165.6,0.05,0.00,1.00,-4,-2,-4,89,0
[12:38:00.732 29/11/2023],-194178.6,-111035.2,-146312.1,-207868.4,-185953.5,-180728.6,-202335.5,-158147,0.05,0.00,1.00,-4,-2,-4,89,0
[12:38:00.736 29/11/2023],-194191.8,-111051.2,-146328.2,-207883.6,-185989.3,-180740.6,-202350.8,-158159.6,0.05,0.00,1.00,-4,-2,-4,89,0
[12:38:00.740 29/11/2023],-194218,-111079.1,-146340.4,-207892.5,-185997.6,-180782.4,-202364.2,-158174.1,0.05,0.00,1.00,-4,-2,-4,89,0
[12:38:00.744 29/11/2023],-194203.7,-111068.9,-146323.5,-207866.6,-185965.4,-180759.9,-202345.1,-158162.4,0.05,0.00,1.00,-4,-2,-4,89,0
[12:38:00.748 29/11/2023],-194170.9,-111045.7,-146301.8,-207844,-185927.6,-180721.5,-202320.1,-158140,0.05,0.00,1.00,-4,-2,-4,89,0
[12:38:00.752 29/11/2023],-194180.9,-111049.7,-146308.7,-207860.5,-185959.2,-180734.4,-202332.5,-158152.7,0.05,0.00,1.00,-4,-2,-4,89,0
[12:38:00.756 29/11/2023],-194185.1,-111038.3,-146301.5,-207856.6,-185954.5,-180732.2,-202330.2,-158145.8,0.03,0.00,1.02,-4,-2,-4,89,0
[12:38:00.760 29/11/2023],-194181,-111045.6,-146302.8,-207852.5,-185945.2,-180728.7,-202329.4,-158142.5,0.03,0.00,1.02,-4,-2,-4,89,0
[12:38:00.764 29/11/2023],-194163.6,-111040.9,-146301.6,-207843.5,-185943.8,-180717.9,-202323.5,-158138.9,0.03,0.00,1.02,-4,-2,-4,89,0
[12:38:00.768 29/11/2023],-194161.3,-111028.7,-146291.6,-207834,-185941.8,-180709.5,-202311.8,-158130.5,0.03,0.00,1.02,-4,-2,-4,89,0
[12:38:00.772 29/11/2023],-194166.7,-111030.8,-146290.6,-207843.1,-185941.3,-180705.2,-202314.8,-158132,0.03,0.00,1.02,-4,-2,-4,89,0
[12:38:00.776 29/11/2023],-194157.3,-111014.5,-146282.2,-207835.8,-185952.3,-180691.2,-202302,-158119.4,0.03,0.00,1.02,-4,-2,-4,89,0
[12:38:00.780 29/11/2023],-194152.6,-111009.5,-146269.5,-207821.9,-185924.9,-180703.4,-202292.4,-158105.8,0.03,0.00,1.02,-4,-2,-4,89,0
[12:38:00.784 29/11/2023],-194166.5,-111029.6,-146288.5,-207845.4,-185928.9,-180722.8,-202316.2,-158122.8,0.03,0.00,1.02,-4,-2,-4,89,0
[12:38:00.788 29/11/2023],-194183.4,-111040.2,-146310.6,-207865.7,-185952.6,-180729.6,-202335.9,-158139.1,0.03,0.00,1.02,-4,-2,-4,89,0
[12:38:00.792 29/11/2023],-194182.4,-111033.7,-146307.6,-207859.5,-185953.2,-180695.1,-202327.4,-158138,0.03,0.00,1.02,-4,-2,-4,89,0
[12:38:00.796 29/11/2023],-194140.9,-111002.8,-146284.3,-207817.8,-185922.6,-180671.6,-202295.4,-158108.7,0.03,0.00,1.02,-4,-2,-4,89,0
[12:38:00.800 29/11/2023],-194140.2,-111017.9,-146289.7,-207832.4,-185918.5,-180706.3,-202300.2,-158125.2,0.03,0.00,1.02,-4,-2,-4,89,0
[12:38:00.804 29/11/2023],-194170.6,-111052.5,-146318.5,-207868.5,-185944.7,-180748.8,-202329.3,-158152.7,0.03,0.00,1.02,-4,-2,-4,89,0
[12:38:00.808 29/11/2023],-194190.9,-111055.5,-146330.4,-207878.5,-185958.3,-180747,-202339.3,-158157.3,0.03,0.00,1.02,-4,-2,-4,89,0
[12:38:00.812 29/11/2023],-194168.4,-111019,-146299.5,-207853,-185927.6,-180740.6,-202314,-158135.4,0.03,0.00,1.02,-4,-2,-4,89,0
[12:38:00.816 29/11/2023],-194165.4,-111018.3,-146289,-207846.8,-185915.6,-180708.6,-202310,-158131.4,0.03,0.00,1.02,-4,-2,-4,89,0
[12:38:00.820 29/11/2023],-194170.5,-111033.7,-146297,-207846.1,-185939.3,-180724.1,-202319.4,-158133.8,0.03,0.00,1.02,-4,-2,-4,89,0
[12:38:00.824 29/11/2023],-194159.1,-111032.2,-146292.8,-207841.9,-185950.9,-180724.3,-202314.1,-158126.2,0.03,0.00,1.02,-4,-2,-4,89,0
[12:38:00.828 29/11/2023],-194142.2,-110998.9,-146267.2,-207820.2,-185931.7,-180685.1,-202290.3,-158100.5,0.03,0.00,1.02,-4,-2,-4,89,0
[12:38:00.832 29/11/2023],-194133.7,-110970,-146246.2,-207807.9,-185903.6,-180661.5,-202270.7,-158087.9,0.03,0.00,1.02,-4,-2,-4,89,0
[12:38:00.836 29/11/2023],-194142.5,-110991.3,-146257.6,-207807.6,-185899.4,-180663.7,-202275,-158092.4,0.03,0.00,1.02,-4,-2,-4,89,0
[12:38:00.840 29/11/2023],-194148.9,-111016.9,-146276.3,-207816.8,-185915.9,-180682.1,-202297.9,-158107.2,0.03,0.00,1.02,-4,-2,-4,89,0
[12:38:00.844 29/11/2023],-194145.2,-111008.9,-146280.7,-207819.9,-185906.3,-180702,-202301,-158111.4,0.03,0.00,1.02,-4,-2,-4,89,0
[12:38:00.848 29/11/2023],-194124.8,-110985.3,-146266.5,-207802.9,-185879.9,-180686.2,-202283.9,-158095.3,0.03,0.00,1.02,-4,-2,-4,89,0
[12:38:00.852 29/11/2023],-194140,-111004.8,-146288.5,-207826.3,-185926.4,-180698.3,-202304.8,-158112.2,0.03,0.00,1.02,-4,-2,-4,89,0
[12:38:00.856 29/11/2023],-194145.1,-111010.2,-146292.9,-207835.2,-185943.8,-180694,-202309.7,-158118.7,0.03,0.00,1.02,-4,-2,-4,89,0
[12:38:00.860 29/11/2023],-194143.4,-110991.9,-146279.4,-207822.8,-185939.2,-180686.9,-202301.1,-158112.1,0.03,0.00,1.02,-4,-2,-4,89,0
[12:38:00.864 29/11/2023],-194150.5,-110983,-146266.1,-207807.3,-185917.2,-180678.9,-202287.8,-158098,0.03,0.00,1.02,-4,-2,-4,89,0
[12:38:00.868 29/11/2023],-194152.7,-111001.3,-146266,-207805.5,-185926.9,-180691,-202287.8,-158095.5,0.03,0.00,1.02,-4,-2,-4,89,0
[12:38:00.872 29/11/2023],-194165.8,-111018.1,-146282.3,-207823.6,-185936.6,-180697.6,-202309.6,-158111.1,0.03,0.00,1.02,-4,-2,-4,89,0
[12:38:00.876 29/11/2023],-194170.1,-111022.3,-146293.8,-207831.5,-185935.3,-180704.9,-202319,-158125.5,0.03,0.00,1.02,-4,-2,-4,89,0
[12:38:00.880 29/11/2023],-194151.4,-111007.8,-146287.1,-207819.6,-185927.3,-180690.6,-202303.4,-158118.2,0.03,0.00,1.02,-4,-2,-4,89,0
[12:38:00.884 29/11/2023],-194148.5,-110998.5,-146274.3,-207823.5,-185928.2,-180692.2,-202303.4,-158125.3,0.03,0.00,1.02,-4,-2,-4,89,0
[12:38:00.888 29/11/2023],-194147.4,-111002.6,-146273.5,-207811.7,-185928.6,-180692.2,-202298.8,-158118.1,0.03,0.00,1.02,-4,-2,-4,89,0
[12:38:00.892 29/11/2023],-194151.5,-111013.5,-146291,-207823.2,-185930.2,-180703.4,-202312.4,-158121.9,0.03,0.00,1.02,-4,-2,-4,89,0
[12:38:00.896 29/11/2023],-194140.9,-110994.1,-146280.8,-207829.3,-185934.4,-180692.3,-202297.7,-158109.8,0.03,0.00,1.02,-4,-2,-4,89,0
[12:38:00.900 29/11/2023],-194155.3,-111006.3,-146279.3,-207832.3,-185933.8,-180707.4,-202305,-158118.7,0.03,0.00,1.02,-4,-2,-4,89,0
[12:38:00.904 29/11/2023],-194141.1,-110994,-146266.6,-207805.4,-185924.6,-180673.5,-202292.1,-158104.4,0.03,0.00,1.02,-4,-2,-4,89,0
[12:38:00.908 29/11/2023],-194136.9,-110980.3,-146261.7,-207812.2,-185923,-180659.5,-202292.3,-158103,0.03,0.00,1.02,-4,-2,-4,89,0
[12:38:00.912 29/11/2023],-194131.6,-110983.5,-146260.4,-207809.4,-185917.5,-180676.1,-202289.8,-158099.8,0.03,0.00,1.02,-4,-2,-4,89,0
[12:38:00.916 29/11/2023],-194128.9,-110983.8,-146250.1,-207795.2,-185911.7,-180665.3,-202284,-158086.7,0.03,0.00,1.02,-4,-2,-4,89,0
[12:38:00.920 29/11/2023],-194123.7,-110972.1,-146239.8,-207789.5,-185883.4,-180636.1,-202272.9,-158080.6,0.03,0.00,1.02,-4,-2,-4,89,0
[12:38:00.924 29/11/2023],-194126.5,-110974,-146254.8,-207794.1,-185910,-180664.3,-202280.6,-158090.3,0.03,0.00,1.02,-4,-2,-4,89,0
[12:38:00.928 29/11/2023],-194129.6,-110975.8,-146263.6,-207787.2,-185919.8,-180671.5,-202275.5,-158092.9,0.03,0.00,1.02,-4,-2,-4,89,0
[12:38:00.932 29/11/2023],-194127.2,-110971.6,-146254,-207784.9,-185900.8,-180658,-202267.5,-158083.9,0.03,0.00,1.02,-4,-2,-4,89,0
[12:38:00.936 29/11/2023],-194130.5,-110977,-146255,-207795.9,-185913.7,-180670.7,-202276.8,-158094,0.03,0.00,1.02,-4,-2,-4,89,0
[12:38:00.940 29/11/2023],-194141,-110991.9,-146257.3,-207802.7,-185918.5,-180676.5,-202284.2,-158097.9,0.03,0.00,1.02,-4,-2,-4,89,0
[12:38:00.944 29/11/2023],-194116.4,-110964.8,-146235,-207776.8,-185890,-180637.9,-202264.8,-158069.7,0.03,0.00,1.02,-4,-2,-4,89,0
[12:38:00.948 29/11/2023],-194104.2,-110951.7,-146221.3,-207767.5,-185896.4,-180638.3,-202257.8,-158061.7,0.03,0.00,1.02,-4,-2,-4,89,0
[12:38:00.952 29/11/2023],-194126.7,-110966.8,-146247.8,-207788.2,-185894.3,-180653.9,-202278.9,-158082.3,0.03,0.00,1.02,-4,-2,-4,89,0
[12:38:00.956 29/11/2023],-194116.9,-110955.4,-146245.6,-207782.8,-185882.5,-180638.6,-202267.8,-158068.3,0.03,0.00,1.02,-4,-2,-4,89,0
[12:38:00.960 29/11/2023],-194110.8,-110947.7,-146243.3,-207776.7,-185882.5,-180643.8,-202260.3,-158069.1,0.03,0.00,1.02,-4,-2,-4,89,0
[12:38:00.964 29/11/2023],-194122.5,-110966,-146242.5,-207785.2,-185901.7,-180665.4,-202268.9,-158082.4,0.03,0.00,1.02,-4,-2,-4,89,0
[12:38:00.968 29/11/2023],-194134.3,-110987.9,-146258,-207802.2,-185918.9,-180675.7,-202286.5,-158103.1,0.03,0.00,1.02,-4,-2,-4,89,0
[12:38:00.972 29/11/2023],-194136.4,-110979.7,-146257.1,-207800,-185918,-180665.2,-202286.2,-158098.7,0.03,0.00,1.02,-4,-2,-4,89,0
[12:38:00.976 29/11/2023],-194114.1,-110955,-146237.6,-207780.3,-185884.9,-180661.6,-202260.1,-158075.8,0.03,0.00,1.02,-4,-2,-4,89,0
[12:38:00.980 29/11/2023],-194092.8,-110937.6,-146215.2,-207749,-185848.9,-180637,-202237.7,-158060.2,0.03,0.00,1.02,-4,-2,-4,89,0
[12:38:00.984 29/11/2023],-194121.8,-110960.7,-146243.8,-207771.4,-185886.8,-180650,-202269.7,-158084,0.03,0.00,1.02,-4,-2,-4,89,0
[12:38:00.988 29/11/2023],-194137,-110988.5,-146269.7,-207802.2,-185916.2,-180683.6,-202291.1,-158100.2,0.03,0.00,1.02,-4,-2,-4,89,0
[12:38:00.992 29/11/2023],-194135.5,-110992.3,-146278.1,-207800.9,-185911,-180689.1,-202291,-158102.3,0.03,0.00,1.02,-4,-2,-4,89,0
[12:38:00.996 29/11/2023],-194084.1,-110947.8,-146233.9,-207762,-185864.1,-180647,-202252.6,-158065,0.03,0.00,1.02,-4,-2,-4,89,0
[12:38:01.000 29/11/2023],-194078.7,-110944,-146225.6,-207761.8,-185867.8,-180618.8,-202243.5,-158062.6,0.03,0.00,1.02,-4,-2,-4,89,0
[12:38:01.004 29/11/2023],-194098.9,-110946.7,-146229.8,-207768.8,-185877.3,-180641.7,-202251.5,-158062.2,0.03,0.00,1.02,-4,-2,-4,89,0
[12:38:01.008 29/11/2023],-194111.1,-110949.8,-146231.1,-207779.8,-185874.7,-180652.2,-202257.1,-158064.5,0.03,0.00,1.02,-4,-2,-4,89,0
[12:38:01.012 29/11/2023],-194104.4,-110940.4,-146223.7,-207767,-185867.4,-180642.4,-202249.5,-158064.2,0.03,0.00,1.02,-4,-2,-4,89,0
[12:38:01.016 29/11/2023],-194096.5,-110918.6,-146218.2,-207762.3,-185864.4,-180652.6,-202242.9,-158065,0.03,0.00,1.02,-4,-2,-4,89,0
[12:38:01.020 29/11/2023],-194097.3,-110925.4,-146219.7,-207769.3,-185874.3,-180653.7,-202244.8,-158065.8,0.03,0.00,1.02,-4,-2,-4,89,0
[12:38:01.024 29/11/2023],-194103.2,-110946.5,-146221,-207774.8,-185860.5,-180648.8,-202246.8,-158070.7,0.03,0.00,1.02,-4,-2,-4,89,0
[12:38:01.028 29/11/2023],-194087.7,-110943.4,-146218,-207756.9,-185838.3,-180644.7,-202236.8,-158058.4,0.03,0.00,1.02,-4,-2,-4,89,0
[12:38:01.032 29/11/2023],-194077.7,-110913,-146212.3,-207745.6,-185832,-180605.3,-202222.7,-158037.2,0.03,0.00,1.02,-4,-2,-4,89,0
[12:38:01.036 29/11/2023],-194102,-110935.9,-146221,-207760.8,-185846.1,-180617,-202237.5,-158052,0.03,0.00,1.02,-4,-2,-4,89,0
[12:38:01.040 29/11/2023],-194107.1,-110934,-146219.3,-207766,-185846.9,-180632,-202242.2,-158057.9,0.03,0.00,1.02,-4,-2,-4,89,0
[12:38:01.044 29/11/2023],-194069.6,-110926.9,-146209.5,-207752,-185848.4,-180616.1,-202224.4,-158034.4,0.03,0.00,1.02,-4,-2,-4,89,0
[12:38:01.048 29/11/2023],-194082.9,-110924.6,-146205.8,-207751.4,-185845.5,-180616.4,-202223.3,-158030.5,0.03,0.00,1.02,-4,-2,-4,89,0
[12:38:01.052 29/11/2023],-194103.8,-110938.9,-146220.7,-207760.2,-185859.3,-180637.3,-202236.3,-158052.6,0.03,0.00,1.02,-4,-2,-4,89,0
[12:38:01.056 29/11/2023],-194089.8,-110924.1,-146212.7,-207757.9,-185844.9,-180637.2,-202224.7,-158042,0.03,0.00,1.02,-4,-2,-4,89,0
[12:38:01.060 29/11/2023],-194068.2,-110907.2,-146209.1,-207751.6,-185826.3,-180622.6,-202213.3,-158025,0.03,0.00,1.02,-4,-2,-4,89,0
[12:38:01.064 29/11/2023],-194051.6,-110895.9,-146197.9,-207733.9,-185807.9,-180595.6,-202198.7,-158018.8,0.03,0.00,1.02,-4,-2,-4,89,0
[12:38:01.068 29/11/2023],-194077.7,-110913,-146212.3,-207745.6,-185832,-180605.3,-202222.7,-158037.2,0.03,0.00,1.02,-4,-2,-4,89,0
[12:38:01.072 29/11/2023],-194102,-110935.9,-146221,-207760.8,-185846.1,-180617,-202237.5,-158052,0.03,0.00,1.02,-4,-2,-4,89,0
[12:38:01.076 29/11/2023],-194107.1,-110934,-146219.3,-207766,-185846.9,-180632,-202242.2,-158057.9,0.03,0.00,1.02,-4,-2,-4,89,0
[12:38:01.080 29/11/2023],-194071.1,-110900.9,-146190,-207731.4,-185850.3,-180625.1,-202222.1,-158033.6,0.03,0.02,1.02,-4,-2,-4,89,0
[12:38:01.084 29/11/2023],-194077.5,-110904.9,-146198.5,-207734.6,-185863.6,-180594.3,-202226.5,-158035.7,0.03,0.02,1.02,-4,-2,-4,89,0
[12:38:01.088 29/11/2023],-194081.1,-110906.1,-146215.5,-207753.5,-185860.7,-180626.5,-202232.4,-158046.2,0.03,0.02,1.02,-4,-2,-4,89,0
[12:38:01.092 29/11/2023],-194085.1,-110915.3,-146223.3,-207758.1,-185856.5,-180646.9,-202239.5,-158052.4,0.03,0.02,1.02,-4,-2,-4,89,0
[12:38:01.096 29/11/2023],-194063.6,-110913.7,-146218.3,-207746.1,-185847.8,-180613.1,-202221.3,-158037.3,0.03,0.02,1.02,-4,-2,-4,89,0
[12:38:01.100 29/11/2023],-194066.8,-110925.8,-146209.8,-207748.1,-185857.3,-180618,-202220.2,-158041.2,0.03,0.02,1.02,-4,-2,-4,89,0
[12:38:01.104 29/11/2023],-194106.5,-110941.3,-146219.3,-207760.2,-185876.9,-180638.9,-202241.7,-158055.6,0.03,0.02,1.02,-4,-2,-4,89,0
[12:38:01.108 29/11/2023],-194088.4,-110927,-146225.7,-207757.6,-185861.9,-180622.5,-202240.3,-158064.6,0.03,0.02,1.02,-4,-2,-4,89,0
[12:38:01.112 29/11/2023],-194084.9,-110929.2,-146214.5,-207743.7,-185866.1,-180623.7,-202236.1,-158060.1,0.03,0.02,1.02,-4,-2,-4,89,0
[12:38:01.116 29/11/2023],-194073.9,-110910.3,-146202.8,-207747.8,-185842.5,-180615.6,-202222.8,-158038.1,0.05,0.00,1.02,-4,-2,-4,89,0
[12:38:01.120 29/11/2023],-194085.2,-110911,-146212.9,-207751.5,-185861.5,-180616.7,-202225.8,-158037.9,0.05,0.00,1.02,-4,-2,-4,89,0
[12:38:01.124 29/11/2023],-194103.4,-110934.6,-146234.2,-207760.2,-185879.5,-180626.7,-202241.1,-158052.8,0.05,0.00,1.02,-4,-2,-4,89,0
[12:38:01.128 29/11/2023],-194090.1,-110924.6,-146217.5,-207752.5,-185873.8,-180621.5,-202243.1,-158046.1,0.05,0.00,1.02,-4,-2,-4,89,0
[12:38:01.132 29/11/2023],-194070.7,-110896.3,-146202.6,-207744.6,-185848.1,-180608,-202233.1,-158043.6,0.05,0.00,1.02,-4,-2,-4,89,0
[12:38:01.136 29/11/2023],-194079.8,-110898.1,-146216.8,-207744.3,-185843.4,-180637.9,-202235.9,-158054.8,0.05,0.00,1.02,-4,-2,-4,89,0
[12:38:01.140 29/11/2023],-194082,-110906.9,-146214.6,-207752,-185839.5,-180637.8,-202234.5,-158055,0.05,0.00,1.02,-4,-2,-4,89,0
[12:38:01.144 29/11/2023],-194088.4,-110927,-146225.7,-207757.6,-185861.9,-180622.5,-202240.3,-158064.6,0.05,0.00,1.02,-4,-2,-4,89,0
[12:38:01.148 29/11/2023],-194084.9,-110929.2,-146214.5,-207743.7,-185866.1,-180623.7,-202236.1,-158060.1,0.05,0.00,1.02,-4,-2,-4,89,0
[12:38:01.152 29/11/2023],-194084.3,-110923.5,-146220.5,-207754.3,-185866.5,-180630.3,-202239.7,-158064.9,0.05,0.00,1.02,-4,-2,-4,89,0
[12:38:01.156 29/11/2023],-194098.1,-110926.9,-146228.6,-207766.1,-185873,-180632.1,-202247,-158065.3,0.05,0.00,1.02,-4,-2,-4,89,0
[12:38:01.160 29/11/2023],-194106.5,-110933.1,-146226.3,-207762.2,-185856.9,-180613.8,-202242.1,-158057,0.05,0.00,1.02,-4,-2,-4,89,0
[12:38:01.164 29/11/2023],-194076.1,-110902.3,-146203.5,-207737.7,-185830.5,-180602,-202214.5,-158034.3,0.05,0.00,1.02,-4,-2,-4,89,0
[12:38:01.168 29/11/2023],-194083.8,-110907.7,-146214.1,-207752.8,-185860.5,-180630.9,-202228.6,-158043.7,0.05,0.00,1.02,-4,-2,-4,89,0
[12:38:01.172 29/11/2023],-194082.5,-110900.2,-146209.3,-207751.1,-185863.2,-180624.3,-202227.7,-158038.4,0.05,0.00,1.02,-4,-2,-4,89,0
[12:38:01.176 29/11/2023],-194077.7,-110890.3,-146210.3,-207753.7,-185848.3,-180613.8,-202228,-158040.7,0.05,0.00,1.02,-4,-2,-4,89,0
[12:38:01.180 29/11/2023],-194048.7,-110877.5,-146195.9,-207738.4,-185817.3,-180597.1,-202206.1,-158026.4,0.05,0.00,1.02,-4,-2,-4,89,0
[12:38:01.184 29/11/2023],-194039,-110873,-146168.6,-207716.9,-185822.5,-180590.7,-202186.8,-158010.4,0.05,0.00,1.02,-4,-2,-4,89,0
[12:38:01.188 29/11/2023],-194063.7,-110889.3,-146182.3,-207723.5,-185830.8,-180590.1,-202196.6,-158021,0.03,0.00,1.02,-4,-2,-4,89,0
[12:38:01.192 29/11/2023],-194062.2,-110890.8,-146176.8,-207722.4,-185815.7,-180590.6,-202200.4,-158022.2,0.03,0.00,1.02,-4,-2,-4,89,0
[12:38:01.196 29/11/2023],-194042.2,-110880.5,-146164.9,-207714.7,-185811.1,-180567,-202190.9,-158009.1,0.03,0.00,1.02,-4,-2,-4,89,0
[12:38:01.200 29/11/2023],-194035.4,-110879.4,-146177.3,-207728.1,-185806.8,-180587.7,-202195.4,-158018.3,0.03,0.00,1.02,-4,-2,-4,89,0
[12:38:01.204 29/11/2023],-194055.7,-110889.5,-146191,-207734.9,-185825.7,-180603.4,-202213,-158039.8,0.03,0.00,1.02,-4,-2,-4,89,0
[12:38:01.208 29/11/2023],-194061.4,-110890.1,-146183.5,-207720.2,-185845.5,-180584.3,-202204.7,-158027,0.03,0.00,1.02,-4,-2,-4,89,0
[12:38:01.212 29/11/2023],-194024.5,-110859.3,-146149.9,-207686.2,-185796,-180551.5,-202167.8,-157990.5,0.03,0.00,1.02,-4,-2,-4,89,0
[12:38:01.216 29/11/2023],-194012.9,-110839.9,-146140.1,-207692.4,-185797.5,-180559,-202161,-157986,0.03,0.00,1.02,-4,-2,-4,89,0
[12:38:01.220 29/11/2023],-194016,-110836.7,-146151.7,-207700.9,-185796.3,-180564,-202167.8,-157990,0.03,0.00,1.02,-4,-2,-4,89,0
[12:38:01.224 29/11/2023],-194027.5,-110822,-146147.1,-207692.2,-185799.5,-180557.6,-202161.4,-157984.3,0.03,-0.02,1.02,-4,-2,-4,89,0
[12:38:01.228 29/11/2023],-194045.4,-110841.8,-146146.3,-207693.5,-185796.8,-180550.8,-202163.5,-157985,0.03,-0.02,1.02,-4,-2,-4,89,0
[12:38:01.232 29/11/2023],-194026,-110841.6,-146137.7,-207679,-185794,-180543.6,-202156.4,-157968,0.03,-0.02,1.02,-4,-2,-4,89,0
[12:38:01.236 29/11/2023],-194029,-110860.7,-146148.1,-207689.6,-185808.2,-180562.3,-202173.9,-157982.3,0.03,-0.02,1.02,-4,-2,-4,89,0
[12:38:01.240 29/11/2023],-194036.7,-110868,-146168,-207695.6,-185806.9,-180565.7,-202185.3,-157992.6,0.03,-0.02,1.02,-4,-2,-4,89,0
[12:38:01.244 29/11/2023],-194028.6,-110849.4,-146157.3,-207684.9,-185790.6,-180569.8,-202176,-157990.5,0.03,-0.02,1.02,-4,-2,-4,89,0
[12:38:01.248 29/11/2023],-194020.3,-110843.9,-146153.1,-207684.5,-185787.2,-180554.6,-202170.9,-157985.6,0.03,-0.02,1.02,-4,-2,-4,89,0
[12:38:01.252 29/11/2023],-194025.5,-110849.9,-146163.9,-207697.9,-185800.2,-180560.1,-202183.2,-157990.4,0.03,-0.02,1.02,-4,-2,-4,89,0
[12:38:01.256 29/11/2023],-194028.6,-110862.5,-146170.2,-207716.1,-185820.3,-180587.4,-202198.9,-158000.8,0.03,-0.02,1.02,-4,-2,-4,89,0
[12:38:01.260 29/11/2023],-194022.7,-110851.5,-146157.7,-207710.2,-185796.7,-180559.7,-202188.5,-157990.6,0.05,0.00,1.02,-4,-2,-4,89,0
[12:38:01.264 29/11/2023],-194041.9,-110838.7,-146151.8,-207692.1,-185795.7,-180549.8,-202178.2,-157980.7,0.05,0.00,1.02,-4,-2,-4,89,0
[12:38:01.268 29/11/2023],-194045.4,-110845.3,-146158.6,-207684.8,-185802.8,-180542.1,-202177.4,-157989.5,0.05,0.00,1.02,-4,-2,-4,89,0
[12:38:01.272 29/11/2023],-194038.4,-110849,-146158.7,-207682.8,-185793.3,-180551.9,-202174.5,-157990.5,0.05,0.00,1.02,-4,-2,-4,89,0
[12:38:01.276 29/11/2023],-194037.9,-110839.3,-146144.4,-207686,-185796.4,-180551.1,-202174.6,-157980.6,0.05,0.00,1.02,-4,-2,-4,89,0
[12:38:01.280 29/11/2023],-194022.3,-110826.5,-146129.7,-207672.2,-185784,-180532.3,-202160.8,-157966.1,0.05,0.00,1.02,-4,-2,-4,89,0
[12:38:01.284 29/11/2023],-194030.4,-110839.4,-146146.1,-207677.2,-185790.5,-180555.4,-202176.4,-157980.9,0.05,0.00,1.02,-4,-2,-4,89,0
[12:38:01.288 29/11/2023],-194034,-110844.8,-146156.5,-207688.5,-185799.5,-180562.6,-202180.5,-157991.2,0.05,0.00,1.02,-4,-2,-4,89,0
[12:38:01.292 29/11/2023],-194025.5,-110829.4,-146152.1,-207684,-185802.1,-180564.2,-202174,-157981.6,0.05,0.00,1.02,-4,-2,-4,89,0
[12:38:01.296 29/11/2023],-194024.4,-110842.6,-146147.6,-207677.8,-185803.9,-180567.8,-202176,-157986,0.03,0.00,1.03,-4,-2,-4,89,0
[12:38:01.300 29/11/2023],-194023.6,-110857.1,-146166.4,-207689.6,-185817,-180576.4,-202185.3,-158005.2,0.03,0.00,1.03,-4,-2,-4,89,0
[12:38:01.304 29/11/2023],-194023.7,-110840.7,-146174.5,-207691.2,-185812.2,-180568.9,-202185.3,-158000.5,0.03,0.00,1.03,-4,-2,-4,89,0
[12:38:01.308 29/11/2023],-194029.3,-110842.5,-146173.8,-207693.5,-185805.8,-180558.8,-202183.5,-157999.6,0.03,0.00,1.03,-4,-2,-4,89,0
[12:38:01.312 29/11/2023],-194040.3,-110852,-146179.1,-207701.9,-185821.2,-180562.3,-202189.6,-158006,0.03,0.00,1.03,-4,-2,-4,89,0
[12:38:01.316 29/11/2023],-194044.5,-110856.2,-146165.8,-207700.9,-185816.7,-180572,-202187.4,-158006.1,0.03,0.00,1.03,-4,-2,-4,89,0
[12:38:01.320 29/11/2023],-194039.6,-110850.7,-146151.6,-207689.7,-185807.6,-180563.5,-202178.2,-157995.2,0.03,0.00,1.03,-4,-2,-4,89,0
[12:38:01.324 29/11/2023],-194040.5,-110852.9,-146159.8,-207690.9,-185810.2,-180567,-202177.6,-157989.7,0.03,0.00,1.03,-4,-2,-4,89,0
[12:38:01.328 29/11/2023],-194033.3,-110851.9,-146146.6,-207681.9,-185788.2,-180556.1,-202173.9,-157987.3,0.03,0.00,1.03,-4,-2,-4,89,0
[12:38:01.332 29/11/2023],-194022.3,-110844,-146146.7,-207670.4,-185759.4,-180547.1,-202169.6,-157984.8,0.03,0.00,1.02,-4,-2,-4,89,0
[12:38:01.336 29/11/2023],-194030.2,-110846.4,-146165.1,-207676.3,-185800.7,-180530,-202181.5,-157987.6,0.03,0.00,1.02,-4,-2,-4,89,0
[12:38:01.340 29/11/2023],-194033,-110838.6,-146162.4,-207676.4,-185809.1,-180550.3,-202182.9,-157993.3,0.03,0.00,1.02,-4,-2,-4,89,0
[12:38:01.344 29/11/2023],-194030.1,-110841.4,-146166,-207685.2,-185804.5,-180556.4,-202185.3,-157999,0.03,0.00,1.02,-4,-2,-4,89,0
[12:38:01.348 29/11/2023],-194003.9,-110818.9,-146129.3,-207654.1,-185758.4,-180504.1,-202145.3,-157968.3,0.05,0.00,1.02,-4,-2,-4,89,0
[12:38:01.352 29/11/2023],-194018.6,-110832.6,-146147.1,-207670.9,-185781.3,-180537.5,-202159.7,-157977.1,0.05,0.00,1.02,-4,-2,-4,89,0
[12:38:01.356 29/11/2023],-194009.6,-110809.1,-146140.3,-207659.9,-185758.9,-180521.3,-202145.6,-157962.5,0.05,0.00,1.02,-4,-2,-4,89,0
[12:38:01.360 29/11/2023],-193989.7,-110779.4,-146115.1,-207632.7,-185737.8,-180488.8,-202123.8,-157942,0.05,0.00,1.02,-4,-2,-4,89,0
[12:38:01.364 29/11/2023],-193991,-110792.8,-146120.9,-207631.2,-185744.4,-180501.1,-202127.2,-157945.5,0.05,0.00,1.02,-4,-2,-4,89,0
[12:38:01.368 29/11/2023],-194020.1,-110817.1,-146146.7,-207686,-185781.6,-180536.6,-202163.3,-157983,0.05,0.00,1.02,-4,-2,-4,89,0
[12:38:01.372 29/11/2023],-194036.3,-110834.9,-146161.7,-207690.7,-185784.6,-180533,-202175.9,-157990.8,0.05,0.00,1.02,-4,-2,-4,89,0
[12:38:01.376 29/11/2023],-194020.8,-110834.1,-146146.8,-207672.3,-185765,-180517.3,-202163.9,-157977.1,0.05,0.00,1.02,-4,-2,-4,89,0
[12:38:01.380 29/11/2023],-193998,-110813.8,-146121.3,-207646.1,-185731.6,-180503.7,-202141.9,-157962.6,0.05,0.00,1.02,-4,-2,-4,89,0
[12:38:01.384 29/11/2023],-194003.9,-110818.9,-146129.3,-207654.1,-185758.4,-180504.1,-202145.3,-157968.3,0.05,0.00,1.02,-4,-2,-4,89,0
[12:38:01.388 29/11/2023],-194018.6,-110832.6,-146147.1,-207670.9,-185781.3,-180537.5,-202159.7,-157977.1,0.05,0.00,1.02,-4,-2,-4,89,0
[12:38:01.392 29/11/2023],-194009.6,-110809.1,-146140.3,-207659.9,-185758.9,-180521.3,-202145.6,-157962.5,0.05,0.00,1.02,-4,-2,-4,89,0
[12:38:01.396 29/11/2023],-193989.7,-110779.4,-146115.1,-207632.7,-185737.8,-180488.8,-202123.8,-157942,0.05,0.00,1.02,-4,-2,-4,89,0
[12:38:01.400 29/11/2023],-193991,-110792.8,-146120.9,-207631.2,-185744.4,-180501.1,-202127.2,-157945.5,0.05,0.00,1.02,-4,-2,-4,89,0
[12:38:01.404 29/11/2023],-194027,-110833.9,-146150,-207664.1,-185772.2,-180535.3,-202157,-157973,0.03,0.00,1.02,-4,-2,-4,89,0
[12:38:01.408 29/11/2023],-194037.9,-110846.1,-146154.2,-207677.4,-185767.7,-180537.9,-202166.3,-157979.7,0.03,0.00,1.02,-4,-2,-4,89,0
[12:38:01.412 29/11/2023],-194037.1,-110848.6,-146160.8,-207687.7,-185788.1,-180535.9,-202172.1,-157989.2,0.03,0.00,1.02,-4,-2,-4,89,0
[12:38:01.416 29/11/2023],-194004.2,-110821.8,-146145.5,-207663.4,-185790.2,-180510.5,-202148.7,-157960.8,0.03,0.00,1.02,-4,-2,-4,89,0
[12:38:01.420 29/11/2023],-193987.5,-110805.5,-146135.2,-207654.2,-185774.1,-180514.8,-202132.6,-157950.9,0.03,0.00,1.02,-4,-2,-4,89,0
[12:38:01.424 29/11/2023],-193997.8,-110804.7,-146134.1,-207650.9,-185746.7,-180523.3,-202132,-157951.5,0.03,0.00,1.02,-4,-2,-4,89,0
[12:38:01.428 29/11/2023],-194010.4,-110812.3,-146134.3,-207640.6,-185764.3,-180513.3,-202137.1,-157951.3,0.03,0.00,1.02,-4,-2,-4,89,0
[12:38:01.432 29/11/2023],-193998.7,-110808.4,-146115.5,-207627.8,-185756.3,-180491.4,-202130.2,-157942.9,0.03,0.00,1.02,-4,-2,-4,89,0
[12:38:01.436 29/11/2023],-194000.2,-110813.2,-146129,-207644.8,-185760.3,-180506.5,-202143.2,-157950.7,0.03,0.00,1.02,-4,-2,-4,89,0
[12:38:01.440 29/11/2023],-193986.9,-110772.6,-146101.8,-207628.1,-185735.3,-180479.7,-202119.2,-157920.5,0.03,0.00,1.03,-4,-2,-4,89,0
[12:38:01.444 29/11/2023],-193976.3,-110775.7,-146087.9,-207615.1,-185732.5,-180468.1,-202103.3,-157913,0.03,0.00,1.03,-4,-2,-4,89,0
[12:38:01.448 29/11/2023],-193987.4,-110799.8,-146117.2,-207635.7,-185723.9,-180481.8,-202118.8,-157932.1,0.03,0.00,1.03,-4,-2,-4,89,0
[12:38:01.452 29/11/2023],-194002.5,-110818.9,-146139.1,-207658.3,-185739.5,-180508.9,-202134.8,-157949.5,0.03,0.00,1.03,-4,-2,-4,89,0
[12:38:01.456 29/11/2023],-193994.9,-110810.1,-146126.2,-207659.3,-185749.3,-180515,-202130.2,-157948.9,0.03,0.00,1.03,-4,-2,-4,89,0
[12:38:01.460 29/11/2023],-193983.8,-110793.9,-146118,-207651.8,-185734.7,-180483.8,-202117.3,-157930,0.03,0.00,1.03,-4,-2,-4,89,0
[12:38:01.464 29/11/2023],-194005.4,-110798,-146127.9,-207658,-185737.9,-180486.6,-202124.6,-157936.4,0.03,0.00,1.03,-4,-2,-4,89,0
[12:38:01.468 29/11/2023],-194038.8,-110815.8,-146146.5,-207681.9,-185762.3,-180512.1,-202154,-157969.7,0.03,0.00,1.03,-4,-2,-4,89,0
[12:38:01.472 29/11/2023],-194065.7,-110841.5,-146169.6,-207699.1,-185777.9,-180538.1,-202181,-157995,0.03,0.00,1.03,-4,-2,-4,89,0
[12:38:01.476 29/11/2023],-193986.9,-110772.6,-146101.8,-207628.1,-185735.3,-180479.7,-202119.2,-157920.5,0.03,0.00,1.03,-4,-2,-4,89,0
[12:38:01.480 29/11/2023],-193976.3,-110775.7,-146087.9,-207615.1,-185732.5,-180468.1,-202103.3,-157913,0.03,0.00,1.03,-4,-2,-4,89,0
[12:38:01.484 29/11/2023],-193987.4,-110799.8,-146117.2,-207635.7,-185723.9,-180481.8,-202118.8,-157932.1,0.03,0.00,1.03,-4,-2,-4,89,0
[12:38:01.488 29/11/2023],-194002.5,-110818.9,-146139.1,-207658.3,-185739.5,-180508.9,-202134.8,-157949.5,0.03,0.00,1.03,-4,-2,-4,89,0
[12:38:01.492 29/11/2023],-193994.9,-110810.1,-146126.2,-207659.3,-185749.3,-180515,-202130.2,-157948.9,0.03,0.00,1.03,-4,-2,-4,89,0
[12:38:01.496 29/11/2023],-193983.8,-110793.9,-146118,-207651.8,-185734.7,-180483.8,-202117.3,-157930,0.03,0.00,1.03,-4,-2,-4,89,0
[12:38:01.500 29/11/2023],-194005.4,-110798,-146127.9,-207658,-185737.9,-180486.6,-202124.6,-157936.4,0.03,0.00,1.03,-4,-2,-4,89,0
[12:38:01.504 29/11/2023],-194038.8,-110815.8,-146146.5,-207681.9,-185762.3,-180512.1,-202154,-157969.7,0.03,0.00,1.03,-4,-2,-4,89,0
[12:38:01.508 29/11/2023],-194065.7,-110841.5,-146169.6,-207699.1,-185777.9,-180538.1,-202181,-157995,0.03,0.00,1.03,-4,-2,-4,89,0
[12:38:01.512 29/11/2023],-194044.9,-110838.1,-146159.1,-207683.5,-185753.5,-180533.6,-202169.5,-157982.6,0.03,0.02,1.02,-4,-2,-4,89,0
[12:38:01.516 29/11/2023],-194023.7,-110828.8,-146156.2,-207677.1,-185756.3,-180517.7,-202160.2,-157964.4,0.03,0.02,1.02,-4,-2,-4,89,0
[12:38:01.520 29/11/2023],-194012.1,-110818.3,-146143.3,-207662.8,-185743.7,-180498,-202143.2,-157954.8,0.03,0.02,1.02,-4,-2,-4,89,0
[12:38:01.524 29/11/2023],-193989.1,-110784.5,-146111.7,-207635.2,-185715.3,-180486.9,-202114.3,-157930.9,0.03,0.02,1.02,-4,-2,-4,89,0
[12:38:01.528 29/11/2023],-193973.6,-110764.8,-146096.6,-207621.6,-185699.8,-180449.1,-202100.2,-157911.8,0.03,0.02,1.02,-4,-2,-4,89,0
[12:38:01.532 29/11/2023],-193968.3,-110762,-146099.6,-207619,-185708.7,-180448.5,-202101.8,-157912.6,0.03,0.02,1.02,-4,-2,-4,89,0
[12:38:01.536 29/11/2023],-193978.8,-110775.7,-146109.3,-207632.4,-185706.9,-180474.3,-202115.8,-157920,0.03,0.02,1.02,-4,-2,-4,89,0
[12:38:01.540 29/11/2023],-194004.6,-110805.7,-146124.6,-207655.8,-185728.8,-180517,-202131.9,-157942.5,0.03,0.02,1.02,-4,-2,-4,89,0
[12:38:01.544 29/11/2023],-194008.2,-110808.3,-146118.1,-207649,-185720.8,-180501,-202127.8,-157935.5,0.03,0.02,1.02,-4,-2,-4,89,0
[12:38:01.548 29/11/2023],-194012.8,-110795,-146119.3,-207639.9,-185727.4,-180476.1,-202133.3,-157937.8,0.03,0.02,1.02,-4,-2,-4,89,0
[12:38:01.552 29/11/2023],-193993.4,-110802.6,-146115.5,-207639.7,-185719.6,-180486.7,-202122.5,-157939.4,0.03,0.02,1.02,-4,-2,-4,89,0
[12:38:01.556 29/11/2023],-194004.2,-110803.9,-146110.6,-207640.7,-185698.2,-180490.5,-202124.6,-157944,0.03,0.02,1.02,-4,-2,-4,89,0
[12:38:01.560 29/11/2023],-194002.8,-110791.6,-146099.6,-207629.1,-185702.4,-180466.4,-202117.9,-157930.9,0.03,0.02,1.02,-4,-2,-4,89,0
[12:38:01.564 29/11/2023],-194007.5,-110802.6,-146111.8,-207631.9,-185721.2,-180465.3,-202127.7,-157938.2,0.03,0.02,1.02,-4,-2,-4,89,0
[12:38:01.568 29/11/2023],-194008.8,-110790.3,-146116,-207637.2,-185730,-180476.3,-202127.2,-157938.8,0.03,0.02,1.02,-4,-2,-4,89,0
[12:38:01.572 29/11/2023],-193961.7,-110757.3,-146078.1,-207610.1,-185701.4,-180453,-202087.7,-157907.7,0.03,0.02,1.02,-4,-2,-4,89,0
[12:38:01.576 29/11/2023],-193941.2,-110748.1,-146045,-207585.7,-185659.9,-180436.1,-202068.8,-157892.9,0.03,0.02,1.02,-4,-2,-4,89,0
[12:38:01.580 29/11/2023],-193971.5,-110770.9,-146074,-207600,-185698.2,-180441.1,-202093,-157912.8,0.03,0.02,1.02,-4,-2,-4,89,0
[12:38:01.584 29/11/2023],-193989.8,-110788.4,-146104.7,-207634.9,-185711.5,-180463.7,-202117.5,-157933,0.03,0.00,1.02,-4,-2,-4,89,0
[12:38:01.588 29/11/2023],-193993.4,-110802.6,-146115.5,-207639.7,-185719.6,-180486.7,-202122.5,-157939.4,0.03,0.00,1.02,-4,-2,-4,89,0
[12:38:01.592 29/11/2023],-193983.2,-110766,-146099.1,-207609.5,-185698.1,-180441.3,-202102.4,-157912.2,0.03,0.00,1.02,-4,-2,-4,89,0
[12:38:01.596 29/11/2023],-193956,-110748.1,-146087.9,-207600.6,-185698.6,-180448.7,-202092.4,-157908.7,0.03,0.00,1.02,-4,-2,-4,89,0
[12:38:01.600 29/11/2023],-193950.8,-110735.2,-146082.7,-207602,-185680.6,-180445.6,-202093.9,-157914.1,0.03,0.00,1.02,-4,-2,-4,89,0
[12:38:01.604 29/11/2023],-193977.5,-110763,-146092.7,-207618.9,-185692.3,-180449,-202103.2,-157926.8,0.03,0.00,1.02,-4,-2,-4,89,0
[12:38:01.608 29/11/2023],-193999.4,-110799.3,-146110.3,-207630.3,-185720.7,-180471.4,-202111.3,-157936.8,0.03,0.00,1.02,-4,-2,-4,89,0
[12:38:01.612 29/11/2023],-193968.9,-110779.7,-146082.2,-207601.3,-185708.2,-180456.7,-202084.2,-157908.3,0.03,0.00,1.02,-4,-2,-4,89,0
[12:38:01.616 29/11/2023],-193963.6,-110768.5,-146060.5,-207589.9,-185695.5,-180430.7,-202082,-157901.4,0.03,0.00,1.02,-4,-2,-4,89,0
[12:38:01.620 29/11/2023],-194006.9,-110789.5,-146103.8,-207622.3,-185711.7,-180456.7,-202116,-157928.2,0.03,0.00,1.02,-4,-2,-4,89,0
[12:38:01.624 29/11/2023],-193996.3,-110773.9,-146098.7,-207611.6,-185683.4,-180463,-202110.9,-157918.6,0.03,0.00,1.02,-4,-2,-4,89,0
[12:38:01.628 29/11/2023],-193983.2,-110766,-146099.1,-207609.5,-185698.1,-180441.3,-202102.4,-157912.2,0.03,0.00,1.02,-4,-2,-4,89,0
[12:38:01.632 29/11/2023],-193956,-110748.1,-146087.9,-207600.6,-185698.6,-180448.7,-202092.4,-157908.7,0.03,0.00,1.02,-4,-2,-4,89,0
[12:38:01.636 29/11/2023],-193950.8,-110735.2,-146082.7,-207602,-185680.6,-180445.6,-202093.9,-157914.1,0.03,0.00,1.02,-4,-2,-4,89,0
[12:38:01.640 29/11/2023],-193977.5,-110763,-146092.7,-207618.9,-185692.3,-180449,-202103.2,-157926.8,0.03,0.00,1.02,-4,-2,-4,89,0
[12:38:01.644 29/11/2023],-193999.4,-110799.3,-146110.3,-207630.3,-185720.7,-180471.4,-202111.3,-157936.8,0.03,0.00,1.02,-4,-2,-4,89,0
[12:38:01.648 29/11/2023],-193968.9,-110779.7,-146082.2,-207601.3,-185708.2,-180456.7,-202084.2,-157908.3,0.03,0.00,1.02,-4,-2,-4,89,0
[12:38:01.652 29/11/2023],-193963.6,-110768.5,-146060.5,-207589.9,-185695.5,-180430.7,-202082,-157901.4,0.03,0.00,1.02,-4,-2,-4,89,0
[12:38:01.656 29/11/2023],-194018.2,-110808.4,-146127.2,-207657.1,-185732.4,-180502.5,-202135.5,-157956.6,0.03,0.00,1.02,-4,-2,-4,89,0
[12:38:01.660 29/11/2023],-194009.9,-110805.9,-146110.6,-207645.2,-185718,-180475,-202117.8,-157949,0.03,0.00,1.02,-4,-2,-4,89,0
[12:38:01.664 29/11/2023],-194017.4,-110806.7,-146119.3,-207655.1,-185723.3,-180493.9,-202126.8,-157954.7,0.03,0.00,1.02,-4,-2,-4,89,0
[12:38:01.668 29/11/2023],-194022,-110803.3,-146118.6,-207660.8,-185728.1,-180518.5,-202131.4,-157957.4,0.03,0.00,1.02,-4,-2,-4,89,0
[12:38:01.672 29/11/2023],-194000.2,-110780.8,-146108.7,-207653.1,-185708.4,-180489.1,-202115.8,-157947.2,0.03,0.00,1.02,-4,-2,-4,89,0
[12:38:01.676 29/11/2023],-193955.5,-110754.5,-146100.7,-207634,-185683.3,-180475.1,-202094.8,-157928.9,0.03,0.00,1.02,-4,-2,-4,89,0
[12:38:01.680 29/11/2023],-193954.9,-110755.3,-146093.3,-207631.3,-185671.4,-180483.4,-202092.3,-157923.4,0.03,0.00,1.02,-4,-2,-4,89,0
[12:38:01.684 29/11/2023],-193987.1,-110784.4,-146109,-207652.7,-185681.6,-180501.7,-202115.6,-157944.3,0.03,0.00,1.02,-4,-2,-4,89,0
[12:38:01.688 29/11/2023],-193982.3,-110795.9,-146109.2,-207644.1,-185713.6,-180488.8,-202115.6,-157936.3,0.03,0.00,1.02,-4,-2,-4,89,0
[12:38:01.692 29/11/2023],-194018.2,-110808.4,-146127.2,-207657.1,-185732.4,-180502.5,-202135.5,-157956.6,0.03,0.00,1.02,-4,-2,-4,89,0
[12:38:01.696 29/11/2023],-194009.9,-110805.9,-146110.6,-207645.2,-185718,-180475,-202117.8,-157949,0.03,0.00,1.02,-4,-2,-4,89,0
[12:38:01.700 29/11/2023],-194017.4,-110806.7,-146119.3,-207655.1,-185723.3,-180493.9,-202126.8,-157954.7,0.03,0.00,1.02,-4,-2,-4,89,0
[12:38:01.704 29/11/2023],-194022,-110803.3,-146118.6,-207660.8,-185728.1,-180518.5,-202131.4,-157957.4,0.03,0.00,1.02,-4,-2,-4,89,0
[12:38:01.708 29/11/2023],-193979.6,-110771.7,-146085.2,-207624,-185682.3,-180472.7,-202096.1,-157910.7,0.03,0.00,1.02,-4,-2,-4,89,0
[12:38:01.712 29/11/2023],-193958.5,-110758.3,-146073.2,-207607.3,-185678,-180452.5,-202083.1,-157898,0.03,0.00,1.02,-4,-2,-4,89,0
[12:38:01.716 29/11/2023],-193960.5,-110757.4,-146075.1,-207609.5,-185681.3,-180451.3,-202083.4,-157900.5,0.03,0.00,1.02,-4,-2,-4,89,0
[12:38:01.720 29/11/2023],-193969.5,-110768.9,-146092.3,-207626.1,-185701.6,-180461.3,-202099.4,-157916.3,0.03,0.00,1.02,-4,-2,-4,89,0
[12:38:01.724 29/11/2023],-193988.1,-110783.5,-146103.3,-207641.5,-185707,-180499.6,-202111,-157933.8,0.03,0.00,1.02,-4,-2,-4,89,0
[12:38:01.728 29/11/2023],-193982.2,-110789.2,-146089.7,-207625.8,-185701.8,-180457.9,-202097.5,-157916,0.05,0.00,1.02,-4,-2,-4,89,0
[12:38:01.732 29/11/2023],-193998.8,-110779.2,-146089.5,-207621.9,-185690.3,-180476.7,-202096.8,-157914.4,0.05,0.00,1.02,-4,-2,-4,89,0
[12:38:01.736 29/11/2023],-194006.5,-110766.9,-146090.1,-207628.8,-185696,-180491.2,-202100.5,-157922.5,0.05,0.00,1.02,-4,-2,-4,89,0
[12:38:01.740 29/11/2023],-194004.7,-110783,-146096.5,-207637.2,-185694.7,-180497.1,-202106.2,-157927.3,0.05,0.00,1.02,-4,-2,-4,89,0
[12:38:01.744 29/11/2023],-193979.6,-110771.7,-146085.2,-207624,-185682.3,-180472.7,-202096.1,-157910.7,0.05,0.00,1.02,-4,-2,-4,89,0
[12:38:01.748 29/11/2023],-193958.5,-110758.3,-146073.2,-207607.3,-185678,-180452.5,-202083.1,-157898,0.05,0.00,1.02,-4,-2,-4,89,0
[12:38:01.752 29/11/2023],-193960.5,-110757.4,-146075.1,-207609.5,-185681.3,-180451.3,-202083.4,-157900.5,0.05,0.00,1.02,-4,-2,-4,89,0
[12:38:01.756 29/11/2023],-193969.5,-110768.9,-146092.3,-207626.1,-185701.6,-180461.3,-202099.4,-157916.3,0.05,0.00,1.02,-4,-2,-4,89,0
[12:38:01.760 29/11/2023],-193988.1,-110783.5,-146103.3,-207641.5,-185707,-180499.6,-202111,-157933.8,0.05,0.00,1.02,-4,-2,-4,89,0
[12:38:01.764 29/11/2023],-193967.8,-110747.8,-146068.8,-207617.3,-185660.4,-180487.2,-202080.8,-157912.6,0.03,0.00,1.03,-4,-2,-4,89,0
[12:38:01.768 29/11/2023],-193950.8,-110737.7,-146074,-207615.5,-185680.9,-180450.4,-202072.1,-157907.2,0.03,0.00,1.03,-4,-2,-4,89,0
[12:38:01.772 29/11/2023],-193959.4,-110763.4,-146095.2,-207629.1,-185711.3,-180458,-202091.1,-157915.8,0.03,0.00,1.03,-4,-2,-4,89,0
[12:38:01.776 29/11/2023],-193954.9,-110752.1,-146070.8,-207605.1,-185686.6,-180483.7,-202080,-157897.5,0.03,0.00,1.03,-4,-2,-4,89,0
[12:38:01.780 29/11/2023],-193932.7,-110725.3,-146052.1,-207584.2,-185667.7,-180454.5,-202056.9,-157872.2,0.03,0.00,1.03,-4,-2,-4,89,0
[12:38:01.784 29/11/2023],-193989.1,-110774.3,-146081.3,-207624.8,-185679.3,-180465.8,-202091.3,-157912.3,0.03,0.00,1.03,-4,-2,-4,89,0
[12:38:01.788 29/11/2023],-194003.9,-110788.4,-146091.4,-207634.4,-185689.5,-180476.8,-202099.7,-157921.3,0.03,0.00,1.03,-4,-2,-4,89,0
[12:38:01.792 29/11/2023],-194010.4,-110791,-146093,-207636.1,-185688,-180469.1,-202103.6,-157916.9,0.03,0.00,1.03,-4,-2,-4,89,0
[12:38:01.796 29/11/2023],-194028.9,-110805.5,-146098.5,-207639.8,-185683,-180469.4,-202110,-157922.6,0.03,0.00,1.03,-4,-2,-4,89,0
[12:38:01.800 29/11/2023],-193960.9,-110759.4,-146062.9,-207612.6,-185667.2,-180439.2,-202074.7,-157894.9,0.03,0.00,1.00,-4,-2,-4,89,0
[12:38:01.804 29/11/2023],-193971.2,-110768,-146070.3,-207622,-185659.5,-180432,-202082.5,-157897.2,0.03,0.00,1.00,-4,-2,-4,89,0
[12:38:01.808 29/11/2023],-193978.1,-110765,-146077.9,-207620.1,-185673.4,-180467.2,-202088.4,-157900.2,0.03,0.00,1.00,-4,-2,-4,89,0
[12:38:01.812 29/11/2023],-193963.9,-110752.5,-146064.4,-207605.7,-185680,-180461.3,-202076.8,-157890.2,0.03,0.00,1.00,-4,-2,-4,89,0
[12:38:01.816 29/11/2023],-193960.5,-110743.3,-146058.9,-207598.8,-185670.9,-180447.1,-202070.8,-157882.8,0.03,0.00,1.00,-4,-2,-4,89,0
[12:38:01.820 29/11/2023],-193989.1,-110774.3,-146081.3,-207624.8,-185679.3,-180465.8,-202091.3,-157912.3,0.03,0.00,1.00,-4,-2,-4,89,0
[12:38:01.824 29/11/2023],-194003.9,-110788.4,-146091.4,-207634.4,-185689.5,-180476.8,-202099.7,-157921.3,0.03,0.00,1.00,-4,-2,-4,89,0
[12:38:01.828 29/11/2023],-194010.4,-110791,-146093,-207636.1,-185688,-180469.1,-202103.6,-157916.9,0.03,0.00,1.00,-4,-2,-4,89,0
[12:38:01.832 29/11/2023],-194028.9,-110805.5,-146098.5,-207639.8,-185683,-180469.4,-202110,-157922.6,0.03,0.00,1.00,-4,-2,-4,89,0
[12:38:01.836 29/11/2023],-194045.6,-110809.4,-146099.8,-207639.7,-185664,-180456.6,-202114,-157915.2,0.03,0.00,1.03,-4,-2,-4,89,0
[12:38:01.840 29/11/2023],-194055.7,-110813.7,-146107.7,-207636.9,-185656,-180458.3,-202115.7,-157909.3,0.03,0.00,1.03,-4,-2,-4,89,0
[12:38:01.844 29/11/2023],-194086.5,-110827.9,-146123.9,-207640.8,-185694.8,-180476.7,-202124.3,-157913.8,0.03,0.00,1.03,-4,-2,-4,89,0
[12:38:01.848 29/11/2023],-194101.8,-110830.9,-146123.2,-207638.8,-185678.8,-180459.7,-202124,-157913.9,0.03,0.00,1.03,-4,-2,-4,89,0
[12:38:01.852 29/11/2023],-194120.5,-110841.7,-146144.5,-207664.4,-185677.3,-180461.1,-202137.4,-157926.6,0.03,0.00,1.03,-4,-2,-4,89,0
[12:38:01.856 29/11/2023],-194126,-110853.6,-146147.3,-207675.2,-185694,-180469.3,-202134.7,-157930.8,0.03,0.00,1.03,-4,-2,-4,89,0
[12:38:01.860 29/11/2023],-194128,-110859.1,-146134.8,-207663.8,-185692,-180461.5,-202119.2,-157926.3,0.03,0.00,1.03,-4,-2,-4,89,0
[12:38:01.864 29/11/2023],-194132.5,-110861.8,-146118.8,-207637.1,-185674.4,-180429.8,-202101.4,-157909.1,0.03,0.00,1.03,-4,-2,-4,89,0
[12:38:01.868 29/11/2023],-194144.8,-110867.1,-146123.2,-207645.5,-185655.3,-180445.7,-202114.6,-157917.8,0.03,0.00,1.03,-4,-2,-4,89,0
[12:38:01.872 29/11/2023],-194148.5,-110877,-146120.4,-207645.8,-185688.3,-180456.4,-202129.2,-157927.1,0.03,-0.02,1.03,-4,-2,-4,89,0
[12:38:01.876 29/11/2023],-194127.1,-110863.8,-146107.1,-207630.7,-185658,-180430.8,-202113.8,-157900.4,0.03,-0.02,1.03,-4,-2,-4,89,0
[12:38:01.880 29/11/2023],-194112,-110837.3,-146102.1,-207628.5,-185629,-180442.5,-202103.9,-157889.9,0.03,-0.02,1.03,-4,-2,-4,89,0
[12:38:01.884 29/11/2023],-194133.5,-110851,-146130.8,-207652.7,-185684.8,-180450.4,-202128.7,-157914,0.03,-0.02,1.03,-4,-2,-4,89,0
[12:38:01.888 29/11/2023],-194144.5,-110871.7,-146149.6,-207669.1,-185702.9,-180456,-202143.4,-157930.8,0.03,-0.02,1.03,-4,-2,-4,89,0
[12:38:01.892 29/11/2023],-194138,-110876.5,-146159.9,-207681,-185697.7,-180476.5,-202148.4,-157938.4,0.03,-0.02,1.03,-4,-2,-4,89,0
[12:38:01.896 29/11/2023],-194089.4,-110839.7,-146122.9,-207656.2,-185663.7,-180453.8,-202107.6,-157910.5,0.03,-0.02,1.03,-4,-2,-4,89,0
[12:38:01.900 29/11/2023],-194084.7,-110820.4,-146107.7,-207649.2,-185683.3,-180444.4,-202095.8,-157918.2,0.03,-0.02,1.03,-4,-2,-4,89,0
[12:38:01.904 29/11/2023],-194001.8,-110747.6,-146073.2,-207601.5,-185671.5,-180445.7,-202076.3,-157895,0.03,-0.02,1.03,-4,-2,-4,89,0
[12:38:01.908 29/11/2023],-194060.9,-110813.7,-146098.2,-207639.3,-185675.3,-180437.5,-202091.2,-157918.7,0.03,-0.02,1.00,-4,-2,-4,89,0
[12:38:01.912 29/11/2023],-194020.9,-110781.1,-146083.9,-207608.6,-185644.8,-180413,-202071.2,-157884.3,0.03,-0.02,1.00,-4,-2,-4,89,0
[12:38:01.916 29/11/2023],-194014.9,-110771.7,-146077.1,-207592.5,-185623.5,-180426,-202065,-157869.7,0.03,-0.02,1.00,-4,-2,-4,89,0
[12:38:01.920 29/11/2023],-194023.5,-110782.5,-146090.4,-207609.9,-185646.7,-180436,-202078.3,-157885.9,0.03,-0.02,1.00,-4,-2,-4,89,0
[12:38:01.924 29/11/2023],-194009.1,-110773.4,-146084.3,-207618.2,-185651.8,-180435.5,-202072.8,-157889.6,0.03,-0.02,1.00,-4,-2,-4,89,0
[12:38:01.928 29/11/2023],-193981.9,-110734.3,-146049.1,-207589.5,-185629.5,-180410.4,-202041.2,-157863.3,0.03,-0.02,1.00,-4,-2,-4,89,0
[12:38:01.932 29/11/2023],-193981.6,-110732.2,-146056.4,-207600.8,-185645,-180412.6,-202051.5,-157866.4,0.03,-0.02,1.00,-4,-2,-4,89,0
[12:38:01.936 29/11/2023],-193994.3,-110745.9,-146072.4,-207608.9,-185657.6,-180429.8,-202070.5,-157880.4,0.03,-0.02,1.00,-4,-2,-4,89,0
[12:38:01.940 29/11/2023],-194001.8,-110747.6,-146073.2,-207601.5,-185671.5,-180445.7,-202076.3,-157895,0.03,-0.02,1.00,-4,-2,-4,89,0
[12:38:01.944 29/11/2023],-193976.9,-110729.9,-146059.2,-207596,-185637.9,-180431.2,-202057.6,-157878.3,0.03,0.00,1.00,-4,-2,-4,89,0
[12:38:01.948 29/11/2023],-193968.2,-110731.6,-146053.7,-207595.9,-185643.4,-180426.1,-202053,-157873.4,0.03,0.00,1.00,-4,-2,-4,89,0
[12:38:01.952 29/11/2023],-193971.9,-110733.4,-146050.7,-207593,-185633.6,-180439.7,-202047.8,-157875.1,0.03,0.00,1.00,-4,-2,-4,89,0
[12:38:01.956 29/11/2023],-193969.6,-110733.7,-146053,-207597,-185652.2,-180437.1,-202043.1,-157880.5,0.03,0.00,1.00,-4,-2,-4,89,0
[12:38:01.960 29/11/2023],-193923.9,-110702.9,-146021.6,-207573.3,-185631.9,-180414.3,-202017.6,-157854.1,0.03,0.00,1.00,-4,-2,-4,89,0
[12:38:01.964 29/11/2023],-193905.2,-110686.5,-146011.5,-207562.5,-185615.5,-180401.1,-202011.2,-157843.5,0.03,0.00,1.00,-4,-2,-4,89,0
[12:38:01.968 29/11/2023],-193917.7,-110684.1,-146018.5,-207559.2,-185619.8,-180401.2,-202014.8,-157842.5,0.03,0.00,1.00,-4,-2,-4,89,0
[12:38:01.972 29/11/2023],-193926.3,-110686.3,-146026.5,-207556.8,-185621.4,-180403,-202017.3,-157847.4,0.03,0.00,1.00,-4,-2,-4,89,0
[12:38:01.976 29/11/2023],-193910.1,-110674.2,-146017.1,-207554.9,-185625.3,-180408.8,-202011.2,-157846.6,0.03,0.00,1.00,-4,-2,-4,89,0
[12:38:01.980 29/11/2023],-193861.1,-110643,-145975,-207527.3,-185590,-180365.4,-201981.9,-157808.1,0.03,-0.02,1.02,-4,-2,-4,89,0
[12:38:01.984 29/11/2023],-193872.9,-110655.5,-145984.7,-207534.2,-185603.8,-180370.8,-201985.2,-157815.1,0.03,-0.02,1.02,-4,-2,-4,89,0
[12:38:01.988 29/11/2023],-193906.6,-110685.9,-146009.5,-207554.5,-185622.4,-180405,-202004.7,-157840.1,0.03,-0.02,1.02,-4,-2,-4,89,0
[12:38:01.992 29/11/2023],-193905.8,-110684.2,-146005.9,-207547.9,-185605.1,-180399.2,-202003.5,-157828.8,0.03,-0.02,1.02,-4,-2,-4,89,0
[12:38:01.996 29/11/2023],-193897.1,-110668.4,-145994.3,-207543.7,-185595.4,-180385.5,-201998.2,-157822.9,0.03,-0.02,1.02,-4,-2,-4,89,0
[12:38:02.000 29/11/2023],-193905.8,-110670.4,-146002.1,-207544.8,-185616.3,-180405.2,-202003.8,-157831.1,0.03,-0.02,1.02,-4,-2,-4,89,0
[12:38:02.004 29/11/2023],-193902.8,-110667.3,-145999.4,-207538.3,-185622.6,-180395.1,-201997.5,-157828,0.03,-0.02,1.02,-4,-2,-4,89,0
[12:38:02.008 29/11/2023],-193863.5,-110655.2,-145997.6,-207529.6,-185587.5,-180394.3,-201982,-157827,0.03,-0.02,1.02,-4,-2,-4,89,0
[12:38:02.012 29/11/2023],-193855.1,-110648.1,-145989,-207520.8,-185614,-180383.7,-201976.1,-157822,0.03,-0.02,1.02,-4,-2,-4,89,0
[12:38:02.016 29/11/2023],-193858,-110640.1,-145981,-207518.9,-185582.1,-180373.7,-201972.4,-157808.3,0.03,0.00,1.02,-4,-2,-4,89,0
[12:38:02.020 29/11/2023],-193890.3,-110661.7,-145998,-207542.4,-185596,-180389,-201985.9,-157829.4,0.03,0.00,1.02,-4,-2,-4,89,0
[12:38:02.024 29/11/2023],-193908.6,-110680.7,-146017.5,-207560.9,-185619.7,-180397,-202007.6,-157853.3,0.03,0.00,1.02,-4,-2,-4,89,0
[12:38:02.028 29/11/2023],-193903.4,-110668.7,-146006.5,-207534.4,-185629.3,-180400.8,-201999.4,-157835.8,0.03,0.00,1.02,-4,-2,-4,89,0
[12:38:02.032 29/11/2023],-193906.3,-110674.4,-146001.2,-207534.8,-185629.6,-180406.4,-201999.8,-157830.3,0.03,0.00,1.02,-4,-2,-4,89,0
[12:38:02.036 29/11/2023],-193916,-110691.1,-146015.4,-207565,-185634.2,-180394,-202013.7,-157853.6,0.03,0.00,1.02,-4,-2,-4,89,0
[12:38:02.040 29/11/2023],-193913,-110684.4,-146020.6,-207563,-185615,-180422.9,-202012.3,-157860.8,0.03,0.00,1.02,-4,-2,-4,89,0
[12:38:02.044 29/11/2023],-193863.5,-110655.2,-145997.6,-207529.6,-185587.5,-180394.3,-201982,-157827,0.03,0.00,1.02,-4,-2,-4,89,0
[12:38:02.048 29/11/2023],-193855.1,-110648.1,-145989,-207520.8,-185614,-180383.7,-201976.1,-157822,0.03,0.00,1.02,-4,-2,-4,89,0
[12:38:02.052 29/11/2023],-193892.5,-110662.4,-146013.5,-207544.4,-185634.4,-180407.4,-202003.7,-157844.8,0.05,0.00,1.02,-4,-2,-4,89,0
[12:38:02.056 29/11/2023],-193911.2,-110671.8,-146033.2,-207546.3,-185637.5,-180404.4,-202015.5,-157848.5,0.05,0.00,1.02,-4,-2,-4,89,0
[12:38:02.060 29/11/2023],-193882,-110660,-146026.5,-207538.6,-185624.7,-180384.6,-202003.3,-157838.8,0.05,0.00,1.02,-4,-2,-4,89,0
[12:38:02.064 29/11/2023],-193854.1,-110646.7,-145996.3,-207532.1,-185578,-180378.4,-201981.2,-157820.3,0.05,0.00,1.02,-4,-2,-4,89,0
[12:38:02.068 29/11/2023],-193872.5,-110665.5,-146001.5,-207546.3,-185612.5,-180384.7,-201987.7,-157833.1,0.05,0.00,1.02,-4,-2,-4,89,0
[12:38:02.072 29/11/2023],-193906.4,-110687.2,-146023.3,-207562.8,-185643.6,-180414,-202012.3,-157855.9,0.05,0.00,1.02,-4,-2,-4,89,0
[12:38:02.076 29/11/2023],-193931.2,-110699.1,-146029.6,-207563.2,-185634.5,-180435.8,-202024.5,-157868.3,0.05,0.00,1.02,-4,-2,-4,89,0
[12:38:02.080 29/11/2023],-193902.8,-110669.1,-146009.3,-207534.2,-185623.7,-180405.3,-202005.1,-157847.6,0.05,0.00,1.02,-4,-2,-4,89,0
[12:38:02.084 29/11/2023],-193895.7,-110664.8,-146015.8,-207553.2,-185629.4,-180408.9,-202004.3,-157841.4,0.05,0.00,1.02,-4,-2,-4,89,0
[12:38:02.088 29/11/2023],-193895.4,-110672.4,-146020.3,-207561.1,-185627,-180396.4,-202007.5,-157843.2,0.05,-0.02,1.02,-4,-2,-4,89,0
[12:38:02.092 29/11/2023],-193898.9,-110675.6,-146024.2,-207563.1,-185636.5,-180402.4,-202013.6,-157850,0.05,-0.02,1.02,-4,-2,-4,89,0
[12:38:02.096 29/11/2023],-193891.8,-110658.5,-146008.7,-207547,-185628.8,-180402.6,-202002.8,-157834.8,0.05,-0.02,1.02,-4,-2,-4,89,0
[12:38:02.100 29/11/2023],-193877.5,-110649.6,-146009.3,-207536.7,-185614.5,-180390,-201997.1,-157825.5,0.05,-0.02,1.02,-4,-2,-4,89,0
[12:38:02.104 29/11/2023],-193863.8,-110648,-146002.3,-207527.5,-185608.3,-180370.3,-201988.6,-157821.9,0.05,-0.02,1.02,-4,-2,-4,89,0
[12:38:02.108 29/11/2023],-193874.8,-110642.6,-146001,-207529.1,-185608.5,-180362.4,-201985.3,-157820.4,0.05,-0.02,1.02,-4,-2,-4,89,0
[12:38:02.112 29/11/2023],-193851.6,-110622.4,-145975.2,-207510,-185595.6,-180367.4,-201954.2,-157801.7,0.05,-0.02,1.02,-4,-2,-4,89,0
[12:38:02.116 29/11/2023],-193843.7,-110630.6,-145966.1,-207509.6,-185612.5,-180362.6,-201954.3,-157809.1,0.05,-0.02,1.02,-4,-2,-4,89,0
[12:38:02.120 29/11/2023],-193884,-110644.9,-145997.2,-207516.2,-185628.3,-180390.8,-201996.9,-157825.5,0.05,-0.02,1.02,-4,-2,-4,89,0
[12:38:02.124 29/11/2023],-193877.2,-110625.7,-145983.8,-207503,-185600.2,-180382.4,-201995.7,-157807.6,0.03,0.00,1.02,-4,-2,-4,89,0
[12:38:02.128 29/11/2023],-193834.3,-110595.2,-145948,-207475.3,-185569.8,-180328.2,-201955.9,-157773.2,0.03,0.00,1.02,-4,-2,-4,89,0
[12:38:02.132 29/11/2023],-193822.5,-110583.8,-145946.4,-207466.4,-185553.3,-180327.2,-201944.2,-157758.5,0.03,0.00,1.02,-4,-2,-4,89,0
[12:38:02.136 29/11/2023],-193815.7,-110574.3,-145944,-207462.4,-185562.7,-180313.3,-201937.2,-157755.3,0.03,0.00,1.02,-4,-2,-4,89,0
[12:38:02.140 29/11/2023],-193817.6,-110566.5,-145956.6,-207473,-185589.5,-180318.2,-201952.7,-157765.3,0.03,0.00,1.02,-4,-2,-4,89,0
[12:38:02.144 29/11/2023],-193796.6,-110556.4,-145954.4,-207462.5,-185577.4,-180318.4,-201946,-157763.5,0.03,0.00,1.02,-4,-2,-4,89,0
[12:38:02.148 29/11/2023],-193806.6,-110578.5,-145949.7,-207453.1,-185568.7,-180291.1,-201939.7,-157757.1,0.03,0.00,1.02,-4,-2,-4,89,0
[12:38:02.152 29/11/2023],-193840.3,-110601.9,-145952,-207460,-185581.1,-180313.8,-201951.3,-157763.8,0.03,0.00,1.02,-4,-2,-4,89,0
[12:38:02.156 29/11/2023],-193838.8,-110603.2,-145949.5,-207465,-185559,-180342.9,-201948.4,-157768.5,0.03,0.00,1.02,-4,-2,-4,89,0
[12:38:02.160 29/11/2023],-193833.1,-110598.6,-145949.6,-207470.4,-185559.5,-180331.7,-201941.7,-157771.6,0.03,-0.02,1.02,-4,-2,-4,89,0
[12:38:02.164 29/11/2023],-193829.4,-110598.5,-145944.1,-207466.3,-185565.8,-180319.5,-201935.2,-157770.4,0.03,-0.02,1.02,-4,-2,-4,89,0
[12:38:02.168 29/11/2023],-193848.8,-110614.9,-145955.9,-207482,-185580,-180349,-201949.9,-157783.1,0.03,-0.02,1.02,-4,-2,-4,89,0
[12:38:02.172 29/11/2023],-193853.2,-110617.9,-145967.3,-207490.5,-185567.9,-180351.5,-201959.5,-157787.8,0.03,-0.02,1.02,-4,-2,-4,89,0
[12:38:02.176 29/11/2023],-193833.9,-110594.8,-145953.8,-207479.9,-185568.6,-180322.3,-201952.9,-157773.5,0.03,-0.02,1.02,-4,-2,-4,89,0
[12:38:02.180 29/11/2023],-193827.4,-110583.5,-145943.4,-207473.4,-185578,-180326,-201947.1,-157775.3,0.03,-0.02,1.02,-4,-2,-4,89,0
[12:38:02.184 29/11/2023],-193831.5,-110605.2,-145962.2,-207489.8,-185603.4,-180335.9,-201960.5,-157792.1,0.03,-0.02,1.02,-4,-2,-4,89,0
[12:38:02.188 29/11/2023],-193829.5,-110611.4,-145958.6,-207489.4,-185600.9,-180323.1,-201958.4,-157785.1,0.03,-0.02,1.02,-4,-2,-4,89,0
[12:38:02.192 29/11/2023],-193850.3,-110610,-145955,-207478.7,-185582.2,-180333.6,-201957.8,-157783.5,0.03,-0.02,1.02,-4,-2,-4,89,0
[12:38:02.196 29/11/2023],-193817.7,-110565.1,-145919.7,-207441.7,-185526.7,-180318.2,-201922.7,-157759.6,0.03,0.00,1.00,-4,-2,-4,89,0
[12:38:02.200 29/11/2023],-193811.9,-110571.4,-145931.9,-207454.5,-185552,-180316.1,-201929.5,-157769.4,0.03,0.00,1.00,-4,-2,-4,89,0
[12:38:02.204 29/11/2023],-193821.4,-110596.8,-145944,-207467.6,-185582.6,-180341.1,-201941.4,-157779,0.03,0.00,1.00,-4,-2,-4,89,0
[12:38:02.208 29/11/2023],-193813.8,-110582.5,-145939.1,-207457.3,-185568.4,-180331.5,-201935.7,-157770.9,0.03,0.00,1.00,-4,-2,-4,89,0
[12:38:02.212 29/11/2023],-193797.9,-110575.1,-145925.1,-207445.5,-185547.3,-180311.5,-201919.3,-157758.4,0.03,0.00,1.00,-4,-2,-4,89,0
[12:38:02.216 29/11/2023],-193811.6,-110583.9,-145934,-207461.5,-185541.2,-180317.4,-201927.5,-157764.9,0.03,0.00,1.00,-4,-2,-4,89,0
[12:38:02.220 29/11/2023],-193803.8,-110573.1,-145940.7,-207473.5,-185555.8,-180303.8,-201934,-157763.9,0.03,0.00,1.00,-4,-2,-4,89,0
[12:38:02.224 29/11/2023],-193805.2,-110572.1,-145945.6,-207470.4,-185573.5,-180322.7,-201932.8,-157767.6,0.03,0.00,1.00,-4,-2,-4,89,0
[12:38:02.228 29/11/2023],-193805.6,-110568.5,-145920,-207451.9,-185553.5,-180317.4,-201922.9,-157754.9,0.03,0.00,1.00,-4,-2,-4,89,0
[12:38:02.232 29/11/2023],-193819.6,-110585.3,-145918.8,-207452.2,-185539.1,-180309.2,-201927.3,-157759.2,0.03,0.00,1.00,-4,-2,-4,89,0
[12:38:02.236 29/11/2023],-193824.4,-110587.5,-145924.1,-207457.1,-185547.2,-180326.8,-201931.9,-157758.2,0.03,0.00,1.00,-4,-2,-4,89,0
[12:38:02.240 29/11/2023],-193820.5,-110579.3,-145918.6,-207458,-185537.2,-180312,-201928.9,-157750.7,0.03,0.00,1.00,-4,-2,-4,89,0
[12:38:02.244 29/11/2023],-193796.1,-110551.5,-145887.1,-207432.5,-185533.6,-180293.1,-201902.5,-157730.6,0.03,0.00,1.00,-4,-2,-4,89,0
[12:38:02.248 29/11/2023],-193771.8,-110538.8,-145884.2,-207415.6,-185534.4,-180275.9,-201892.8,-157726.5,0.03,0.00,1.00,-4,-2,-4,89,0
[12:38:02.252 29/11/2023],-193773.2,-110542.6,-145907.8,-207425,-185537.9,-180279.5,-201900.3,-157732.4,0.03,0.00,1.00,-4,-2,-4,89,0
[12:38:02.256 29/11/2023],-193778.3,-110540.1,-145913.2,-207430.4,-185532,-180300.6,-201902.8,-157733.1,0.03,0.00,1.00,-4,-2,-4,89,0
[12:38:02.260 29/11/2023],-193777.1,-110545.4,-145899.5,-207420.5,-185519.3,-180302.8,-201898,-157730,0.03,0.00,1.00,-4,-2,-4,89,0
[12:38:02.264 29/11/2023],-193763.3,-110531.3,-145883.7,-207395.4,-185486.3,-180277.4,-201878,-157708.9,0.03,0.00,1.00,-4,-2,-4,89,0
[12:38:02.268 29/11/2023],-193766.3,-110525.4,-145885.2,-207401.9,-185509.2,-180276.7,-201874.7,-157710.6,0.03,0.00,1.02,-4,-2,-4,89,0
[12:38:02.272 29/11/2023],-193761.3,-110536.8,-145901.3,-207417.6,-185527.2,-180292.3,-201891,-157722.1,0.03,0.00,1.02,-4,-2,-4,89,0
[12:38:02.276 29/11/2023],-193760.1,-110529,-145896,-207410.1,-185509.9,-180285.1,-201890.2,-157721.4,0.03,0.00,1.02,-4,-2,-4,89,0
[12:38:02.280 29/11/2023],-193782.3,-110541.1,-145906.1,-207416.7,-185499.7,-180290.5,-201896.1,-157727.7,0.03,0.00,1.02,-4,-2,-4,89,0
[12:38:02.284 29/11/2023],-193797.2,-110568.4,-145927.3,-207448.5,-185534,-180312.3,-201917.8,-157750.2,0.03,0.00,1.02,-4,-2,-4,89,0
[12:38:02.288 29/11/2023],-193806.4,-110587.9,-145936.5,-207466.8,-185548,-180319.6,-201933.3,-157768.9,0.03,0.00,1.02,-4,-2,-4,89,0
[12:38:02.292 29/11/2023],-193808.6,-110587.4,-145937.4,-207459.3,-185555,-180308.8,-201925.5,-157767.6,0.03,0.00,1.02,-4,-2,-4,89,0
[12:38:02.296 29/11/2023],-193776.3,-110540.2,-145900.3,-207416.5,-185514.9,-180283,-201887.4,-157722.2,0.03,0.00,1.02,-4,-2,-4,89,0
[12:38:02.300 29/11/2023],-193790.2,-110530.4,-145899.7,-207416.6,-185515.3,-180304.3,-201893.7,-157720.9,0.03,0.00,1.02,-4,-2,-4,89,0
[12:38:02.304 29/11/2023],-193812.7,-110558.8,-145923.4,-207430.3,-185535.2,-180307.1,-201917.7,-157741.7,0.03,0.00,1.02,-4,-2,-4,89,0
[12:38:02.308 29/11/2023],-193809.4,-110564.8,-145920.7,-207425.1,-185532.8,-180289.3,-201915.5,-157734.8,0.03,0.00,1.02,-4,-2,-4,89,0
[12:38:02.312 29/11/2023],-193789.8,-110550.6,-145908.3,-207412.1,-185517.2,-180281.9,-201900.8,-157716.1,0.03,0.00,1.02,-4,-2,-4,89,0
[12:38:02.316 29/11/2023],-193782.5,-110543.7,-145913.1,-207414.1,-185518.4,-180291.1,-201903.3,-157719.5,0.03,0.00,1.02,-4,-2,-4,89,0
[12:38:02.320 29/11/2023],-193783.7,-110540,-145924,-207430.7,-185533.5,-180304.5,-201912.1,-157736.3,0.03,0.00,1.02,-4,-2,-4,89,0
[12:38:02.324 29/11/2023],-193769.7,-110517,-145901.8,-207423.9,-185519.1,-180297.1,-201894.5,-157718,0.03,0.00,1.02,-4,-2,-4,89,0
[12:38:02.328 29/11/2023],-193743.2,-110498.5,-145874,-207389.8,-185495.6,-180261.4,-201864.9,-157684.3,0.03,0.00,1.02,-4,-2,-4,89,0
[12:38:02.332 29/11/2023],-193760.2,-110519.4,-145874.4,-207384.5,-185502.5,-180255.8,-201869.4,-157691.4,0.03,0.00,1.02,-4,-2,-4,89,0
[12:38:02.336 29/11/2023],-193765,-110529.5,-145876.3,-207382.9,-185520.3,-180271.5,-201872,-157703.4,0.03,0.00,1.02,-4,-2,-4,89,0
[12:38:02.340 29/11/2023],-193757.6,-110518.6,-145877.6,-207387.3,-185520.6,-180278.5,-201868.3,-157700.9,0.03,0.00,1.02,-4,-2,-4,89,0
[12:38:02.344 29/11/2023],-193738.5,-110492.4,-145860.9,-207379.4,-185499.3,-180242.3,-201849.9,-157675.7,0.03,0.00,1.02,-4,-2,-4,89,0
[12:38:02.348 29/11/2023],-193751.8,-110496.3,-145864.3,-207377.3,-185502.1,-180258.8,-201860.7,-157676.6,0.03,0.00,1.02,-4,-2,-4,89,0
[12:38:02.352 29/11/2023],-193761.8,-110514,-145885.3,-207390.4,-185521.1,-180280.5,-201876.7,-157698.6,0.03,0.00,1.02,-4,-2,-4,89,0
[12:38:02.356 29/11/2023],-193753.5,-110527.7,-145892.6,-207394.1,-185528.5,-180282.1,-201878.5,-157711.3,0.03,0.00,1.02,-4,-2,-4,89,0
[12:38:02.360 29/11/2023],-193752.9,-110524.5,-145890.2,-207390.7,-185518.9,-180278,-201875.7,-157707.5,0.03,0.00,1.02,-4,-2,-4,89,0
[12:38:02.364 29/11/2023],-193726.5,-110502.6,-145868.9,-207377,-185491.6,-180253.9,-201854.7,-157687.1,0.03,0.00,1.02,-4,-2,-4,89,0
[12:38:02.368 29/11/2023],-193731.9,-110501.7,-145870.3,-207372.1,-185505.1,-180258.9,-201860.3,-157682.5,0.03,0.00,1.02,-4,-2,-4,89,0
[12:38:02.372 29/11/2023],-193767.7,-110517.1,-145890.1,-207388.1,-185513.5,-180253,-201878.8,-157696.5,0.03,0.00,1.02,-4,-2,-4,89,0
[12:38:02.376 29/11/2023],-193752.5,-110494.3,-145867.3,-207372.3,-185496.6,-180227,-201855.6,-157676.9,0.03,0.00,1.02,-4,-2,-4,89,0
[12:38:02.380 29/11/2023],-193728,-110453.6,-145843,-207351.8,-185482.2,-180208.5,-201834.5,-157654.5,0.03,0.00,1.02,-4,-2,-4,89,0
[12:38:02.384 29/11/2023],-193736.7,-110482,-145864,-207368.6,-185514.4,-180240,-201854.5,-157676.7,0.03,0.00,1.02,-4,-2,-4,89,0
[12:38:02.388 29/11/2023],-193755.9,-110507.8,-145876.9,-207369.4,-185532.8,-180265.2,-201868.1,-157693.4,0.03,0.00,1.02,-4,-2,-4,89,0
[12:38:02.392 29/11/2023],-193771.3,-110519,-145876,-207374.3,-185526.8,-180264.6,-201871.1,-157694.3,0.03,0.00,1.02,-4,-2,-4,89,0
[12:38:02.396 29/11/2023],-193747.3,-110493,-145853.5,-207355.7,-185498.4,-180250.2,-201844.8,-157677.3,0.03,0.00,1.02,-4,-2,-4,89,0
[12:38:02.400 29/11/2023],-193717.1,-110464.1,-145840.3,-207335.8,-185470.7,-180223.9,-201826.3,-157657.7,0.03,0.00,1.02,-4,-2,-4,89,0
[12:38:02.404 29/11/2023],-193735.8,-110488.2,-145862.8,-207355.2,-185482.6,-180213.9,-201846.8,-157677.6,0.03,0.00,1.02,-4,-2,-4,89,0
[12:38:02.408 29/11/2023],-193761.3,-110510.2,-145885.5,-207373.7,-185516,-180249.9,-201869.4,-157697.1,0.03,0.00,1.02,-4,-2,-4,89,0
[12:38:02.412 29/11/2023],-193743.4,-110495.4,-145871.8,-207364.7,-185514.5,-180231.4,-201859.5,-157687.8,0.03,0.00,1.02,-4,-2,-4,89,0
[12:38:02.416 29/11/2023],-193750.2,-110507.5,-145883.8,-207380.5,-185528.9,-180242.2,-201867.7,-157701.7,0.03,0.00,1.02,-4,-2,-4,89,0
[12:38:02.420 29/11/2023],-193778.1,-110526.6,-145901.8,-207402.1,-185539.6,-180261.1,-201886.2,-157716.3,0.03,0.00,1.02,-4,-2,-4,89,0
[12:38:02.424 29/11/2023],-193789.4,-110523.4,-145893.2,-207404,-185522.4,-180263,-201884.2,-157707.3,0.03,0.00,1.02,-4,-2,-4,89,0
[12:38:02.428 29/11/2023],-193770,-110507.5,-145876.8,-207380.3,-185503.3,-180242.4,-201866.2,-157694.7,0.03,0.00,1.02,-4,-2,-4,89,0
[12:38:02.432 29/11/2023],-193765,-110506.7,-145884.3,-207368.4,-185522.6,-180228.8,-201866.2,-157698.2,0.03,0.00,1.02,-4,-2,-4,89,0
[12:38:02.436 29/11/2023],-193775,-110512.5,-145890.8,-207372,-185521.7,-180237.8,-201876.1,-157705,0.03,0.00,1.02,-4,-2,-4,89,0
[12:38:02.440 29/11/2023],-193740.4,-110490.3,-145873.7,-207359.5,-185496.4,-180233.2,-201856.5,-157694,0.03,0.00,1.02,-4,-2,-4,89,0
[12:38:02.444 29/11/2023],-193707.2,-110449.5,-145837,-207339.5,-185482.5,-180215.5,-201823.4,-157667.6,0.03,0.00,1.02,-4,-2,-4,89,0
[12:38:02.448 29/11/2023],-193730.9,-110465.8,-145846.6,-207349.6,-185479.5,-180232.9,-201832.8,-157674.6,0.03,0.00,1.02,-4,-2,-4,89,0
[12:38:02.452 29/11/2023],-193761.5,-110484.7,-145854.4,-207366.7,-185494.8,-180240.9,-201846.5,-157686.3,0.03,0.00,1.02,-4,-2,-4,89,0
[12:38:02.456 29/11/2023],-193752.4,-110482.5,-145846.1,-207361.5,-185494.1,-180233.5,-201845.2,-157678.7,0.03,0.00,1.02,-4,-2,-4,89,0
[12:38:02.460 29/11/2023],-193754.5,-110495.6,-145855.9,-207368.1,-185493.7,-180242.4,-201857.1,-157689.1,0.03,0.00,1.02,-4,-2,-4,89,0
[12:38:02.464 29/11/2023],-193750.6,-110495.9,-145853.3,-207363.9,-185502.6,-180222.8,-201851.5,-157686,0.03,0.00,1.02,-4,-2,-4,89,0
[12:38:02.468 29/11/2023],-193754.8,-110499.5,-145869.8,-207373.2,-185519.2,-180227.6,-201862.4,-157694.5,0.03,0.00,1.02,-4,-2,-4,89,0
[12:38:02.472 29/11/2023],-193755.4,-110488.1,-145875.9,-207374.6,-185512.5,-180224.7,-201861.5,-157697,0.03,0.00,1.02,-4,-2,-4,89,0
[12:38:02.476 29/11/2023],-193746.8,-110491.3,-145871.2,-207380.6,-185510.6,-180236.7,-201858.5,-157693.9,0.03,0.00,1.02,-4,-2,-4,89,0
[12:38:02.480 29/11/2023],-193735.1,-110488.3,-145868.3,-207379.5,-185478.2,-180242.2,-201856.1,-157682.7,0.03,0.00,1.02,-4,-2,-4,89,0
[12:38:02.484 29/11/2023],-193753,-110502.4,-145879,-207383.5,-185501,-180239.5,-201869.6,-157695.4,0.03,-0.02,1.02,-4,-2,-4,89,0
[12:38:02.488 29/11/2023],-193762.6,-110494.4,-145880.2,-207382.6,-185513,-180241.6,-201866.2,-157688,0.03,-0.02,1.02,-4,-2,-4,89,0
[12:38:02.492 29/11/2023],-193751.8,-110472.1,-145865.3,-207367.5,-185483.5,-180222.9,-201843.6,-157663.7,0.03,-0.02,1.02,-4,-2,-4,89,0
[12:38:02.496 29/11/2023],-193744,-110473.4,-145860.1,-207362.1,-185478.9,-180210.1,-201841.9,-157660.9,0.03,-0.02,1.02,-4,-2,-4,89,0
[12:38:02.500 29/11/2023],-193728.1,-110468.2,-145849.4,-207361.8,-185489.1,-180213.3,-201834.1,-157660.5,0.03,-0.02,1.02,-4,-2,-4,89,0
[12:38:02.504 29/11/2023],-193728.3,-110470,-145851.2,-207360.5,-185484,-180203.9,-201834.9,-157657.3,0.03,-0.02,1.02,-4,-2,-4,89,0
[12:38:02.508 29/11/2023],-193740.8,-110455.1,-145856.4,-207367,-185492,-180203.1,-201844.7,-157668.1,0.03,-0.02,1.02,-4,-2,-4,89,0
[12:38:02.512 29/11/2023],-193744.3,-110443.9,-145841.4,-207356,-185468.8,-180196.1,-201832.9,-157659.8,0.03,-0.02,1.02,-4,-2,-4,89,0
[12:38:02.516 29/11/2023],-193753.7,-110468.4,-145849.2,-207359.1,-185465.5,-180198.7,-201833.3,-157657.1,0.03,-0.02,1.02,-4,-2,-4,89,0
[12:38:02.520 29/11/2023],-193746,-110487.2,-145858,-207372.5,-185478.8,-180206.9,-201838.1,-157666.9,0.05,0.00,1.02,-4,-2,-4,89,0
[12:38:02.524 29/11/2023],-193746.6,-110502.8,-145874.9,-207383.6,-185503.2,-180213.7,-201851.5,-157676.4,0.05,0.00,1.02,-4,-2,-4,89,0
[12:38:02.528 29/11/2023],-193736.4,-110494.5,-145868.3,-207362.2,-185481.6,-180221.9,-201848,-157668.5,0.05,0.00,1.02,-4,-2,-4,89,0
[12:38:02.532 29/11/2023],-193746.1,-110491.2,-145859.7,-207358.9,-185473.4,-180208.4,-201848,-157668.4,0.05,0.00,1.02,-4,-2,-4,89,0
[12:38:02.536 29/11/2023],-193766,-110490.9,-145859.1,-207378.8,-185485.7,-180207,-201853.2,-157675.7,0.05,0.00,1.02,-4,-2,-4,89,0
[12:38:02.540 29/11/2023],-193779.4,-110491,-145870.7,-207396.1,-185498.5,-180211.2,-201864.4,-157685.9,0.05,0.00,1.02,-4,-2,-4,89,0
[12:38:02.544 29/11/2023],-193779.5,-110496.6,-145874.4,-207395.9,-185497.9,-180224,-201868.9,-157688.8,0.05,0.00,1.02,-4,-2,-4,89,0
[12:38:02.548 29/11/2023],-193780.8,-110504.3,-145881.2,-207399.2,-185503.1,-180225.9,-201869.3,-157694.4,0.05,0.00,1.02,-4,-2,-4,89,0
[12:38:02.552 29/11/2023],-193778.8,-110513.1,-145893.7,-207409.6,-185508.1,-180226.7,-201876,-157704.7,0.05,0.00,1.02,-4,-2,-4,89,0
[12:38:02.556 29/11/2023],-193758.6,-110502.1,-145879.8,-207397,-185483.3,-180219.4,-201866.2,-157692.6,0.05,0.00,1.00,-4,-2,-4,89,0
[12:38:02.560 29/11/2023],-193736.6,-110476.2,-145860.5,-207374.1,-185447.5,-180209.6,-201838.1,-157666.4,0.05,0.00,1.00,-4,-2,-4,89,0
[12:38:02.564 29/11/2023],-193718.9,-110451.9,-145835.8,-207356.4,-185442.8,-180188.1,-201814.6,-157644.5,0.05,0.00,1.00,-4,-2,-4,89,0
[12:38:02.568 29/11/2023],-193741.9,-110472.9,-145850.9,-207374.9,-185483.2,-180205.4,-201838.4,-157666.2,0.05,0.00,1.00,-4,-2,-4,89,0
[12:38:02.572 29/11/2023],-193751.6,-110485.4,-145858.7,-207386,-185472,-180209.4,-201848.6,-157673,0.05,0.00,1.00,-4,-2,-4,89,0
[12:38:02.576 29/11/2023],-193749.2,-110480.1,-145860.9,-207384.6,-185472,-180209.4,-201844.9,-157665.3,0.05,0.00,1.00,-4,-2,-4,89,0
[12:38:02.580 29/11/2023],-193735,-110471.9,-145859.7,-207368.3,-185471.1,-180191.4,-201837.9,-157653.2,0.05,0.00,1.00,-4,-2,-4,89,0
[12:38:02.584 29/11/2023],-193752.9,-110481.4,-145886.1,-207390.2,-185494.8,-180198.9,-201860.2,-157680.9,0.05,0.00,1.00,-4,-2,-4,89,0
[12:38:02.588 29/11/2023],-193754.3,-110487.4,-145881.3,-207393.8,-185493.9,-180215.8,-201857.3,-157684.9,0.05,0.00,1.00,-4,-2,-4,89,0
[12:38:02.592 29/11/2023],-193745.5,-110490.6,-145857.6,-207386.4,-185462.8,-180207.1,-201844.3,-157679.3,0.03,0.00,1.02,-4,-2,-4,89,0
[12:38:02.596 29/11/2023],-193724.2,-110473.8,-145830.8,-207357.3,-185434.8,-180183,-201816.7,-157663.1,0.03,0.00,1.02,-4,-2,-4,89,0
[12:38:02.600 29/11/2023],-193730.3,-110474.7,-145837.3,-207364.7,-185464.2,-180185.8,-201825.2,-157668.9,0.03,0.00,1.02,-4,-2,-4,89,0
[12:38:02.604 29/11/2023],-193758.6,-110487,-145858.8,-207390.8,-185490.1,-180205.8,-201848.1,-157682.7,0.03,0.00,1.02,-4,-2,-4,89,0
[12:38:02.608 29/11/2023],-193791.7,-110501.4,-145878.8,-207403.3,-185494.4,-180225.2,-201869.1,-157695.8,0.03,0.00,1.02,-4,-2,-4,89,0
[12:38:02.612 29/11/2023],-193784.4,-110497.9,-145872.1,-207393.2,-185481.4,-180221,-201866.8,-157688,0.03,0.00,1.02,-4,-2,-4,89,0
[12:38:02.616 29/11/2023],-193744.4,-110470.7,-145851,-207369.3,-185453.7,-180190.2,-201837.4,-157664,0.03,0.00,1.02,-4,-2,-4,89,0
[12:38:02.620 29/11/2023],-193742.5,-110464.4,-145858.4,-207384,-185465.2,-180197.9,-201842.6,-157669.7,0.03,0.00,1.02,-4,-2,-4,89,0
[12:38:02.624 29/11/2023],-193752.7,-110476.5,-145873.6,-207404.8,-185487.3,-180200.2,-201863.2,-157682.3,0.03,0.00,1.02,-4,-2,-4,89,0
[12:38:02.628 29/11/2023],-193743.4,-110459.1,-145835.6,-207361.5,-185454.7,-180178.7,-201817,-157655.5,0.02,-0.02,1.02,-4,-2,-4,89,0
[12:38:02.632 29/11/2023],-193745.6,-110461.2,-145851.3,-207367.9,-185476.5,-180192.6,-201824.4,-157663.5,0.02,-0.02,1.02,-4,-2,-4,89,0
[12:38:02.636 29/11/2023],-193762,-110476.2,-145864.8,-207382,-185482.7,-180200.5,-201838.8,-157685.5,0.02,-0.02,1.02,-4,-2,-4,89,0
[12:38:02.640 29/11/2023],-193750.3,-110453.8,-145855.4,-207374.2,-185474,-180198.6,-201832,-157676.3,0.02,-0.02,1.02,-4,-2,-4,89,0
[12:38:02.644 29/11/2023],-193735.5,-110445.7,-145839.1,-207365.3,-185461,-180180.8,-201820.1,-157662.9,0.02,-0.02,1.02,-4,-2,-4,89,0
[12:38:02.648 29/11/2023],-193738.3,-110478.1,-145852.8,-207382.1,-185448.3,-180175.9,-201831.2,-157678.4,0.02,-0.02,1.02,-4,-2,-4,89,0
[12:38:02.652 29/11/2023],-193746.9,-110485.9,-145861.4,-207389.4,-185451.5,-180171.1,-201837.9,-157681.1,0.02,-0.02,1.02,-4,-2,-4,89,0
[12:38:02.656 29/11/2023],-193745.1,-110479.2,-145866.3,-207388.1,-185458.5,-180175.2,-201841.9,-157684.4,0.02,-0.02,1.02,-4,-2,-4,89,0
[12:38:02.660 29/11/2023],-193735.3,-110464.6,-145856.6,-207369.2,-185461.8,-180203.2,-201830.7,-157675.4,0.02,-0.02,1.02,-4,-2,-4,89,0
[12:38:02.664 29/11/2023],-193743.4,-110459.1,-145835.6,-207361.5,-185454.7,-180178.7,-201817,-157655.5,0.05,0.00,1.00,-4,-2,-4,89,0
[12:38:02.668 29/11/2023],-193745.6,-110461.2,-145851.3,-207367.9,-185476.5,-180192.6,-201824.4,-157663.5,0.05,0.00,1.00,-4,-2,-4,89,0
[12:38:02.672 29/11/2023],-193762,-110476.2,-145864.8,-207382,-185482.7,-180200.5,-201838.8,-157685.5,0.05,0.00,1.00,-4,-2,-4,89,0
[12:38:02.676 29/11/2023],-193750.3,-110453.8,-145855.4,-207374.2,-185474,-180198.6,-201832,-157676.3,0.05,0.00,1.00,-4,-2,-4,89,0
[12:38:02.680 29/11/2023],-193735.5,-110445.7,-145839.1,-207365.3,-185461,-180180.8,-201820.1,-157662.9,0.05,0.00,1.00,-4,-2,-4,89,0
[12:38:02.684 29/11/2023],-193738.3,-110478.1,-145852.8,-207382.1,-185448.3,-180175.9,-201831.2,-157678.4,0.05,0.00,1.00,-4,-2,-4,89,0
[12:38:02.688 29/11/2023],-193746.9,-110485.9,-145861.4,-207389.4,-185451.5,-180171.1,-201837.9,-157681.1,0.05,0.00,1.00,-4,-2,-4,89,0
[12:38:02.692 29/11/2023],-193745.1,-110479.2,-145866.3,-207388.1,-185458.5,-180175.2,-201841.9,-157684.4,0.05,0.00,1.00,-4,-2,-4,89,0
[12:38:02.696 29/11/2023],-193735.3,-110464.6,-145856.6,-207369.2,-185461.8,-180203.2,-201830.7,-157675.4,0.05,0.00,1.00,-4,-2,-4,89,0
[12:38:02.700 29/11/2023],-193750.1,-110469.5,-145845.6,-207376.4,-185462.9,-180203.7,-201830,-157671.3,0.05,0.00,1.02,-4,-2,-4,89,0
[12:38:02.704 29/11/2023],-193771,-110485.6,-145859.2,-207388.9,-185476.3,-180223.5,-201846,-157678.8,0.05,0.00,1.02,-4,-2,-4,89,0
[12:38:02.708 29/11/2023],-193767,-110478.6,-145870.8,-207387.8,-185469,-180211,-201850.9,-157675.5,0.05,0.00,1.02,-4,-2,-4,89,0
[12:38:02.712 29/11/2023],-193749.9,-110460.4,-145857.6,-207372.1,-185433.5,-180190.7,-201831.6,-157666.5,0.05,0.00,1.02,-4,-2,-4,89,0
[12:38:02.716 29/11/2023],-193741.6,-110448.5,-145834.3,-207362,-185458,-180171.2,-201810.2,-157654.7,0.05,0.00,1.02,-4,-2,-4,89,0
[12:38:02.720 29/11/2023],-193768.9,-110466.3,-145852.5,-207391.4,-185488.9,-180174.9,-201834.8,-157674.2,0.05,0.00,1.02,-4,-2,-4,89,0
[12:38:02.724 29/11/2023],-193771.5,-110465,-145855,-207386.2,-185474,-180176.2,-201839.4,-157678,0.05,0.00,1.02,-4,-2,-4,89,0
[12:38:02.728 29/11/2023],-193729.7,-110427.1,-145823.8,-207342.5,-185434.7,-180166.2,-201811.5,-157646.1,0.05,0.00,1.02,-4,-2,-4,89,0
[12:38:02.732 29/11/2023],-193738.3,-110444.7,-145828.3,-207362.5,-185454.5,-180177.9,-201824.1,-157651.5,0.05,0.00,1.02,-4,-2,-4,89,0
[12:38:02.736 29/11/2023],-193741.2,-110472.6,-145863.9,-207376.9,-185462.7,-180195.4,-201841.1,-157679.2,0.03,0.00,1.02,-4,-2,-4,89,0
[12:38:02.740 29/11/2023],-193767.1,-110492.1,-145883.7,-207398.8,-185490.6,-180214.7,-201862.8,-157699.8,0.03,0.00,1.02,-4,-2,-4,89,0
[12:38:02.744 29/11/2023],-193753.6,-110472.7,-145859.8,-207389.8,-185481.5,-180188.8,-201839.4,-157684.6,0.03,0.00,1.02,-4,-2,-4,89,0
[12:38:02.748 29/11/2023],-193728.5,-110445,-145833.4,-207352.6,-185449.8,-180168.1,-201808.1,-157650.3,0.03,0.00,1.02,-4,-2,-4,89,0
[12:38:02.752 29/11/2023],-193741.6,-110448.5,-145834.3,-207362,-185458,-180171.2,-201810.2,-157654.7,0.03,0.00,1.02,-4,-2,-4,89,0
[12:38:02.756 29/11/2023],-193768.9,-110466.3,-145852.5,-207391.4,-185488.9,-180174.9,-201834.8,-157674.2,0.03,0.00,1.02,-4,-2,-4,89,0
[12:38:02.760 29/11/2023],-193771.5,-110465,-145855,-207386.2,-185474,-180176.2,-201839.4,-157678,0.03,0.00,1.02,-4,-2,-4,89,0
[12:38:02.764 29/11/2023],-193729.7,-110427.1,-145823.8,-207342.5,-185434.7,-180166.2,-201811.5,-157646.1,0.03,0.00,1.02,-4,-2,-4,89,0
[12:38:02.768 29/11/2023],-193738.3,-110444.7,-145828.3,-207362.5,-185454.5,-180177.9,-201824.1,-157651.5,0.03,0.00,1.02,-4,-2,-4,89,0
[12:38:02.772 29/11/2023],-193753,-110464.1,-145846.8,-207383.7,-185474.6,-180173.1,-201831.4,-157661.1,0.03,0.00,1.02,-4,-2,-4,89,0
[12:38:02.776 29/11/2023],-193732.1,-110436.3,-145833.5,-207363.2,-185460,-180142.8,-201811.7,-157640.7,0.03,0.00,1.02,-4,-2,-4,89,0
[12:38:02.780 29/11/2023],-193689.5,-110411.6,-145807.7,-207337.5,-185422,-180124.1,-201785.3,-157617.2,0.03,0.00,1.02,-4,-2,-4,89,0
[12:38:02.784 29/11/2023],-193715.7,-110429.5,-145818.8,-207348.4,-185436.5,-180148.3,-201804.9,-157634.4,0.03,0.00,1.02,-4,-2,-4,89,0
[12:38:02.788 29/11/2023],-193743.9,-110437.7,-145823.5,-207354.1,-185457.9,-180165.1,-201812.2,-157650.6,0.03,0.00,1.02,-4,-2,-4,89,0
[12:38:02.792 29/11/2023],-193729.5,-110416.6,-145813.7,-207342.6,-185458.5,-180129,-201796.1,-157631.3,0.03,0.00,1.02,-4,-2,-4,89,0
[12:38:02.796 29/11/2023],-193703,-110395.4,-145796.9,-207321.3,-185428.8,-180113.5,-201775.4,-157605.9,0.03,0.00,1.02,-4,-2,-4,89,0
[12:38:02.800 29/11/2023],-193697,-110402.5,-145802.1,-207321.6,-185422.6,-180117.4,-201777.1,-157605.9,0.03,0.00,1.02,-4,-2,-4,89,0
[12:38:02.804 29/11/2023],-193717.2,-110415.1,-145817.6,-207338.4,-185443.3,-180134.7,-201797.6,-157621.3,0.03,0.00,1.02,-4,-2,-4,89,0
[12:38:02.808 29/11/2023],-193713.3,-110410,-145816.5,-207337.2,-185434.8,-180138.7,-201795.4,-157615.1,0.05,0.00,1.00,-4,-2,-4,89,0
[12:38:02.812 29/11/2023],-193745.7,-110430.3,-145824.8,-207347.2,-185431.6,-180155,-201806.3,-157633.1,0.05,0.00,1.00,-4,-2,-4,89,0
[12:38:02.816 29/11/2023],-193755.4,-110437.2,-145836.7,-207355.4,-185442.9,-180154.7,-201818.9,-157640,0.05,0.00,1.02,-4,-2,-4,89,0
[12:38:02.820 29/11/2023],-193766.4,-110455.1,-145860.2,-207376.2,-185464.3,-180163.6,-201839.1,-157662.2,0.05,0.00,1.02,-4,-2,-4,89,0
[12:38:02.824 29/11/2023],-193745.4,-110446.3,-145849.4,-207370.5,-185457.7,-180155.4,-201828.8,-157658.7,0.05,0.00,1.02,-4,-2,-4,89,0
[12:38:02.828 29/11/2023],-193725.1,-110429.9,-145821.7,-207350.7,-185443.8,-180143.9,-201810.2,-157633.6,0.05,0.00,1.02,-4,-2,-4,89,0
[12:38:02.832 29/11/2023],-193730.2,-110439.3,-145824.2,-207362.3,-185450.7,-180154.9,-201813.1,-157639.5,0.05,0.00,1.02,-4,-2,-4,89,0
[12:38:02.836 29/11/2023],-193729.5,-110440.6,-145824.5,-207366.6,-185422.2,-180120.9,-201811.7,-157643.7,0.05,0.00,1.02,-4,-2,-4,89,0
[12:38:02.840 29/11/2023],-193724.8,-110424.1,-145814.1,-207358.4,-185428.4,-180128.7,-201802,-157632.4,0.05,0.00,1.02,-4,-2,-4,89,0
[12:38:02.844 29/11/2023],-193734.1,-110431.4,-145822.8,-207352.8,-185440.4,-180130.3,-201799.5,-157628.6,0.05,0.00,1.02,-4,-2,-4,89,0
[12:38:02.848 29/11/2023],-193745.7,-110430.3,-145824.8,-207347.2,-185431.6,-180155,-201806.3,-157633.1,0.05,0.00,1.02,-4,-2,-4,89,0
[12:38:02.852 29/11/2023],-193755.4,-110437.2,-145836.7,-207355.4,-185442.9,-180154.7,-201818.9,-157640,0.05,0.00,1.02,-4,-2,-4,89,0
[12:38:02.856 29/11/2023],-193766.4,-110455.1,-145860.2,-207376.2,-185464.3,-180163.6,-201839.1,-157662.2,0.05,0.00,1.02,-4,-2,-4,89,0
[12:38:02.860 29/11/2023],-193745.4,-110446.3,-145849.4,-207370.5,-185457.7,-180155.4,-201828.8,-157658.7,0.05,0.00,1.02,-4,-2,-4,89,0
[12:38:02.864 29/11/2023],-193725.1,-110429.9,-145821.7,-207350.7,-185443.8,-180143.9,-201810.2,-157633.6,0.05,0.00,1.02,-4,-2,-4,89,0
[12:38:02.868 29/11/2023],-193730.2,-110439.3,-145824.2,-207362.3,-185450.7,-180154.9,-201813.1,-157639.5,0.05,0.00,1.02,-4,-2,-4,89,0
[12:38:02.872 29/11/2023],-193729.5,-110440.6,-145824.5,-207366.6,-185422.2,-180120.9,-201811.7,-157643.7,0.05,0.00,1.02,-4,-2,-4,89,0
[12:38:02.876 29/11/2023],-193724.8,-110424.1,-145814.1,-207358.4,-185428.4,-180128.7,-201802,-157632.4,0.05,0.00,1.02,-4,-2,-4,89,0
[12:38:02.880 29/11/2023],-193704.4,-110401.9,-145799.2,-207327.1,-185429.7,-180112.5,-201786.2,-157609.8,0.03,0.00,1.00,-4,-2,-4,89,0
[12:38:02.884 29/11/2023],-193689.3,-110394.2,-145801.5,-207331.9,-185417.5,-180107.6,-201784.8,-157606.1,0.03,0.00,1.00,-4,-2,-4,89,0
[12:38:02.888 29/11/2023],-193708.4,-110408.4,-145809.8,-207345.9,-185418.5,-180103.6,-201795.8,-157621.4,0.03,0.00,1.00,-4,-2,-4,89,0
[12:38:02.892 29/11/2023],-193714.8,-110414.4,-145811,-207343.7,-185421.1,-180112.2,-201794.1,-157630.8,0.03,0.00,1.00,-4,-2,-4,89,0
[12:38:02.896 29/11/2023],-193706.6,-110392,-145792.4,-207322.1,-185424.5,-180086.6,-201776.9,-157609.7,0.03,0.00,1.00,-4,-2,-4,89,0
[12:38:02.900 29/11/2023],-193706.4,-110390.9,-145785.3,-207326.6,-185441.9,-180093.7,-201773.2,-157607.8,0.03,0.00,1.00,-4,-2,-4,89,0
[12:38:02.904 29/11/2023],-193681.8,-110381.1,-145778.8,-207315.9,-185425.9,-180084.9,-201761.9,-157599,0.03,0.00,1.00,-4,-2,-4,89,0
[12:38:02.908 29/11/2023],-193674.5,-110375.7,-145775.8,-207298.3,-185401.6,-180068,-201753.2,-157590.9,0.03,0.00,1.00,-4,-2,-4,89,0
[12:38:02.912 29/11/2023],-193679.7,-110376.8,-145767.7,-207302,-185394.5,-180072.8,-201750.5,-157588.5,0.03,0.00,1.00,-4,-2,-4,89,0
[12:38:02.916 29/11/2023],-193704.4,-110401.9,-145799.2,-207327.1,-185429.7,-180112.5,-201786.2,-157609.8,0.03,0.00,1.00,-4,-2,-4,89,0
[12:38:02.920 29/11/2023],-193689.3,-110394.2,-145801.5,-207331.9,-185417.5,-180107.6,-201784.8,-157606.1,0.03,0.00,1.00,-4,-2,-4,89,0
[12:38:02.924 29/11/2023],-193708.4,-110408.4,-145809.8,-207345.9,-185418.5,-180103.6,-201795.8,-157621.4,0.03,0.00,1.00,-4,-2,-4,89,0
[12:38:02.928 29/11/2023],-193714.8,-110414.4,-145811,-207343.7,-185421.1,-180112.2,-201794.1,-157630.8,0.03,0.00,1.00,-4,-2,-4,89,0
[12:38:02.932 29/11/2023],-193706.6,-110392,-145792.4,-207322.1,-185424.5,-180086.6,-201776.9,-157609.7,0.03,0.00,1.00,-4,-2,-4,89,0
[12:38:02.936 29/11/2023],-193706.4,-110390.9,-145785.3,-207326.6,-185441.9,-180093.7,-201773.2,-157607.8,0.03,0.00,1.00,-4,-2,-4,89,0
[12:38:02.940 29/11/2023],-193681.8,-110381.1,-145778.8,-207315.9,-185425.9,-180084.9,-201761.9,-157599,0.03,0.00,1.00,-4,-2,-4,89,0
[12:38:02.944 29/11/2023],-193674.5,-110375.7,-145775.8,-207298.3,-185401.6,-180068,-201753.2,-157590.9,0.03,0.00,1.00,-4,-2,-4,89,0
[12:38:02.948 29/11/2023],-193679.7,-110376.8,-145767.7,-207302,-185394.5,-180072.8,-201750.5,-157588.5,0.03,0.00,1.00,-4,-2,-4,89,0
[12:38:02.952 29/11/2023],-193695.6,-110376.8,-145766.6,-207313.4,-185409.5,-180083.9,-201756.8,-157597.9,0.02,0.00,1.02,-4,-2,-4,89,0
[12:38:02.956 29/11/2023],-193706.6,-110385.1,-145774.7,-207321.2,-185409.6,-180093.3,-201770.2,-157604.8,0.02,0.00,1.02,-4,-2,-4,89,0
[12:38:02.960 29/11/2023],-193685.4,-110378.8,-145779.1,-207314.9,-185404.5,-180078.5,-201761.8,-157594.2,0.02,0.00,1.02,-4,-2,-4,89,0
[12:38:02.964 29/11/2023],-193659.2,-110360,-145767.5,-207288.2,-185381.9,-180048.7,-201742,-157568.6,0.02,0.00,1.02,-4,-2,-4,89,0
[12:38:02.968 29/11/2023],-193666.1,-110344.8,-145757.4,-207273.6,-185388.1,-180062,-201739.7,-157562.8,0.02,0.00,1.02,-4,-2,-4,89,0
[12:38:02.972 29/11/2023],-193684.1,-110361.1,-145768.3,-207294.2,-185401,-180072,-201753.5,-157577.4,0.02,0.00,1.02,-4,-2,-4,89,0
[12:38:02.976 29/11/2023],-193697.5,-110386.9,-145792.3,-207309.6,-185412.9,-180097.5,-201771.1,-157600.2,0.02,0.00,1.02,-4,-2,-4,89,0
[12:38:02.980 29/11/2023],-193680,-110373.9,-145777.6,-207291.5,-185380.8,-180091.3,-201755.7,-157590.1,0.02,0.00,1.02,-4,-2,-4,89,0
[12:38:02.984 29/11/2023],-193682.5,-110373,-145772.3,-207294,-185362.3,-180076.2,-201752.5,-157586,0.02,0.00,1.02,-4,-2,-4,89,0
[12:38:02.988 29/11/2023],-193667.2,-110358.4,-145769,-207281.4,-185375.6,-180076.9,-201747.4,-157575.4,0.03,0.00,1.02,-4,-2,-4,89,0
[12:38:02.992 29/11/2023],-193660,-110351.8,-145765.4,-207275.5,-185381.5,-180073,-201749.8,-157571,0.03,0.00,1.02,-4,-2,-4,89,0
[12:38:02.996 29/11/2023],-193654.7,-110346.9,-145753.1,-207269.7,-185377,-180049.8,-201738.7,-157558.6,0.03,0.00,1.02,-4,-2,-4,89,0
[12:38:03.000 29/11/2023],-193680.2,-110360.9,-145757.5,-207285.3,-185391.8,-180049.2,-201748.1,-157572.7,0.03,0.00,1.02,-4,-2,-4,89,0
[12:38:03.004 29/11/2023],-193689.7,-110374.9,-145774.2,-207296.4,-185416.4,-180064.8,-201763,-157590.5,0.03,0.00,1.02,-4,-2,-4,89,0
[12:38:03.008 29/11/2023],-193661.1,-110347.2,-145768.4,-207282.4,-185410.7,-180069.4,-201751.4,-157581.6,0.03,0.00,1.02,-4,-2,-4,89,0
[12:38:03.012 29/11/2023],-193652,-110328.5,-145752.8,-207276.6,-185384.8,-180043.3,-201738.3,-157566.3,0.03,0.00,1.02,-4,-2,-4,89,0
[12:38:03.016 29/11/2023],-193678.8,-110361.4,-145757.1,-207291.3,-185389.1,-180097.3,-201755.8,-157578.8,0.03,0.00,1.02,-4,-2,-4,89,0
[12:38:03.020 29/11/2023],-193689.3,-110384.4,-145774.9,-207306.6,-185409.9,-180115.6,-201775.2,-157597.3,0.03,0.00,1.02,-4,-2,-4,89,0
[12:38:03.024 29/11/2023],-193681.9,-110372.4,-145762.5,-207296.6,-185417.1,-180099.6,-201758.9,-157585.5,0.03,0.00,1.00,-4,-2,-4,89,0
[12:38:03.028 29/11/2023],-193662.4,-110347.5,-145750.3,-207268.8,-185374.5,-180068.6,-201735.5,-157565.1,0.03,0.00,1.00,-4,-2,-4,89,0
[12:38:03.032 29/11/2023],-193666.5,-110358.5,-145780.6,-207272.1,-185389.1,-180088.6,-201751.7,-157578.1,0.03,0.00,1.00,-4,-2,-4,89,0
[12:38:03.036 29/11/2023],-193679.3,-110370.2,-145791.9,-207299.4,-185386.8,-180105,-201768.3,-157589.1,0.03,0.00,1.00,-4,-2,-4,89,0
[12:38:03.040 29/11/2023],-193717.5,-110395.5,-145805.7,-207322.6,-185415.3,-180102.3,-201798.1,-157614.8,0.03,0.00,1.00,-4,-2,-4,89,0
[12:38:03.044 29/11/2023],-193731.2,-110398.6,-145803.7,-207325,-185444.8,-180109.9,-201799.6,-157622.3,0.03,0.00,1.00,-4,-2,-4,89,0
[12:38:03.048 29/11/2023],-193726.9,-110406.3,-145807.6,-207331.3,-185452,-180138.8,-201798.4,-157631.1,0.03,0.00,1.00,-4,-2,-4,89,0
[12:38:03.052 29/11/2023],-193710.6,-110402.4,-145806.1,-207332.6,-185439.5,-180134.8,-201792.1,-157627.1,0.03,0.00,1.00,-4,-2,-4,89,0
[12:38:03.056 29/11/2023],-193683.7,-110364.1,-145777.9,-207306.5,-185409,-180096,-201763.5,-157589.1,0.03,0.00,1.00,-4,-2,-4,89,0
[12:38:03.060 29/11/2023],-193681.7,-110347.7,-145763.7,-207290.8,-185391.7,-180089.2,-201755.2,-157585.3,0.03,0.00,1.02,-4,-2,-4,89,0
[12:38:03.064 29/11/2023],-193685.6,-110363,-145773,-207298.1,-185386.2,-180092.5,-201762.8,-157594,0.03,0.00,1.02,-4,-2,-4,89,0
[12:38:03.068 29/11/2023],-193682.4,-110376.7,-145792.8,-207307.7,-185384.5,-180118.7,-201770.7,-157605.6,0.03,0.00,1.02,-4,-2,-4,89,0
[12:38:03.072 29/11/2023],-193680.2,-110386.4,-145804,-207316.7,-185417.5,-180121.2,-201780,-157612.9,0.03,0.00,1.02,-4,-2,-4,89,0
[12:38:03.076 29/11/2023],-193679,-110375.3,-145802.6,-207318.6,-185408.6,-180119.5,-201782.3,-157616.1,0.03,0.00,1.02,-4,-2,-4,89,0
[12:38:03.080 29/11/2023],-193675,-110364.7,-145785.1,-207304.1,-185398.9,-180103.5,-201768.9,-157607,0.03,0.00,1.02,-4,-2,-4,89,0
[12:38:03.084 29/11/2023],-193720.3,-110390.1,-145809.8,-207330.7,-185431,-180125.3,-201794,-157626.9,0.03,0.00,1.02,-4,-2,-4,89,0
[12:38:03.088 29/11/2023],-193729.5,-110396,-145809.9,-207320.8,-185424,-180144.9,-201797.4,-157631.9,0.03,0.00,1.02,-4,-2,-4,89,0
[12:38:03.092 29/11/2023],-193709.5,-110386.5,-145790.5,-207307.7,-185394,-180126.3,-201781,-157616.5,0.03,0.00,1.02,-4,-2,-4,89,0
[12:38:03.096 29/11/2023],-193671.9,-110352.4,-145750.6,-207288.6,-185385.6,-180079.9,-201748.4,-157585.4,0.03,0.00,1.02,-4,-2,-4,89,0
[12:38:03.100 29/11/2023],-193661.1,-110346.7,-145746.4,-207284.7,-185387,-180079.1,-201739.7,-157581.7,0.03,0.00,1.02,-4,-2,-4,89,0
[12:38:03.104 29/11/2023],-193671.9,-110358.5,-145766.6,-207297.4,-185382.4,-180092.5,-201750,-157589,0.03,0.00,1.02,-4,-2,-4,89,0
[12:38:03.108 29/11/2023],-193654.8,-110351.6,-145770.7,-207295.7,-185385,-180084.7,-201750.5,-157589.9,0.03,0.00,1.02,-4,-2,-4,89,0
[12:38:03.112 29/11/2023],-193636.9,-110341.3,-145767.8,-207288.5,-185373.4,-180104.9,-201744.3,-157578.6,0.03,0.00,1.02,-4,-2,-4,89,0
[12:38:03.116 29/11/2023],-193645.4,-110346.9,-145767.5,-207288.2,-185351.3,-180107.3,-201739.4,-157571.6,0.03,0.00,1.02,-4,-2,-4,89,0
[12:38:03.120 29/11/2023],-193660.4,-110360.7,-145770.7,-207298.3,-185378,-180094.8,-201749.9,-157591.8,0.03,0.00,1.02,-4,-2,-4,89,0
[12:38:03.124 29/11/2023],-193663.4,-110358.3,-145764.4,-207297.4,-185390.4,-180096.2,-201748.5,-157593.2,0.03,0.00,1.02,-4,-2,-4,89,0
[12:38:03.128 29/11/2023],-193663.8,-110334.3,-145747.6,-207273.8,-185362.7,-180071,-201735.1,-157574.5,0.03,0.00,1.02,-4,-2,-4,89,0
[12:38:03.132 29/11/2023],-193676.6,-110345.6,-145753.1,-207284,-185382.3,-180090.5,-201742.9,-157581.8,0.05,0.00,1.02,-4,-2,-4,89,0
[12:38:03.136 29/11/2023],-193687.8,-110375.8,-145771,-207304.9,-185406,-180107.8,-201759.4,-157597.3,0.05,0.00,1.02,-4,-2,-4,89,0
[12:38:03.140 29/11/2023],-193672,-110366.6,-145771.7,-207308.1,-185399,-180093.8,-201751.6,-157591.8,0.05,0.00,1.02,-4,-2,-4,89,0
[12:38:03.144 29/11/2023],-193653.4,-110338,-145752.9,-207291.7,-185365,-180082.5,-201728.2,-157574.8,0.05,0.00,1.02,-4,-2,-4,89,0
[12:38:03.148 29/11/2023],-193659.5,-110335.2,-145754.8,-207281.3,-185359.8,-180071.9,-201733.6,-157569.6,0.05,0.00,1.02,-4,-2,-4,89,0
[12:38:03.152 29/11/2023],-193661,-110343,-145765.7,-207291.6,-185376.3,-180099,-201744.3,-157580.9,0.05,0.00,1.02,-4,-2,-4,89,0
[12:38:03.156 29/11/2023],-193655.2,-110344.3,-145770.2,-207303.7,-185393.6,-180100.7,-201744.7,-157587.4,0.05,0.00,1.02,-4,-2,-4,89,0
[12:38:03.160 29/11/2023],-193637.6,-110336.7,-145755.4,-207285.8,-185373.8,-180075.3,-201728,-157564.9,0.05,0.00,1.02,-4,-2,-4,89,0
[12:38:03.164 29/11/2023],-193648.4,-110344.8,-145749.3,-207286.5,-185375.4,-180084.6,-201729.9,-157564.8,0.05,0.00,1.02,-4,-2,-4,89,0
[12:38:03.168 29/11/2023],-193661.5,-110356.5,-145756.4,-207302.7,-185401.4,-180079.1,-201741.5,-157581,0.03,0.00,1.02,-4,-2,-4,89,0
[12:38:03.172 29/11/2023],-193659.6,-110354.5,-145766.5,-207295.9,-185391.4,-180091.7,-201741.2,-157578.2,0.03,0.00,1.02,-4,-2,-4,89,0
[12:38:03.176 29/11/2023],-193678.6,-110353,-145772,-207303.1,-185395.7,-180105.8,-201745.1,-157584.9,0.03,0.00,1.02,-4,-2,-4,89,0
[12:38:03.180 29/11/2023],-193673.6,-110333,-145753.1,-207295,-185387.5,-180078.2,-201733.6,-157575.2,0.03,0.00,1.02,-4,-2,-4,89,0
[12:38:03.184 29/11/2023],-193647.2,-110355.4,-145757.2,-207308.5,-185363.4,-180088.8,-201730.9,-157571.8,0.03,0.00,1.02,-4,-2,-4,89,0
[12:38:03.188 29/11/2023],-193653.1,-110348.5,-145750,-207307.3,-185363,-180085.6,-201736.2,-157577.1,0.03,0.00,1.02,-4,-2,-4,89,0
[12:38:03.192 29/11/2023],-193650.9,-110335.2,-145735.9,-207283.2,-185361.8,-180061.8,-201723.2,-157563.6,0.03,0.00,1.02,-4,-2,-4,89,0
[12:38:03.196 29/11/2023],-193643.5,-110326.5,-145725.9,-207263.4,-185343.2,-180048.3,-201708.6,-157550.7,0.03,0.00,1.02,-4,-2,-4,89,0
[12:38:03.200 29/11/2023],-193662.5,-110345.6,-145744.4,-207283.6,-185345,-180078.6,-201724.6,-157567.5,0.03,0.00,1.02,-4,-2,-4,89,0
[12:38:03.204 29/11/2023],-193672.3,-110337.2,-145752.6,-207293.7,-185395.6,-180093.7,-201741.2,-157577.3,0.03,0.00,1.00,-4,-2,-4,89,0
[12:38:03.208 29/11/2023],-193675.6,-110336.9,-145755.5,-207289.3,-185386.9,-180084.3,-201737.3,-157579.4,0.03,0.00,1.00,-4,-2,-4,89,0
[12:38:03.212 29/11/2023],-193655,-110335.7,-145748.3,-207283.5,-185366.6,-180069.8,-201726,-157566.1,0.03,0.00,1.00,-4,-2,-4,89,0
[12:38:03.216 29/11/2023],-193646.1,-110344.8,-145754.1,-207291.6,-185356.3,-180063.4,-201725.7,-157567.1,0.03,0.00,1.00,-4,-2,-4,89,0
[12:38:03.220 29/11/2023],-193647.2,-110355.4,-145757.2,-207308.5,-185363.4,-180088.8,-201735.8,-157575,0.03,0.00,1.00,-4,-2,-4,89,0
[12:38:03.224 29/11/2023],-193653.1,-110348.5,-145750,-207307.3,-185363,-180085.6,-201736.2,-157577.1,0.03,0.00,1.00,-4,-2,-4,89,0
[12:38:03.228 29/11/2023],-193614.8,-110310.1,-145716.2,-207251,-185325.2,-180041,-201688.9,-157534.9,0.03,0.00,1.00,-4,-2,-4,89,0
[12:38:03.232 29/11/2023],-193606.3,-110290,-145701,-207241.9,-185328.6,-180031.5,-201673.9,-157533.9,0.03,0.00,1.00,-4,-2,-4,89,0
[12:38:03.236 29/11/2023],-193610.8,-110277.3,-145697.5,-207254.4,-185327.3,-180038,-201677.7,-157535.3,0.03,0.00,1.00,-4,-2,-4,89,0
[12:38:03.240 29/11/2023],-193611,-110284.8,-145686.7,-207252.3,-185323.1,-180041.2,-201676.5,-157526.7,0.05,0.00,1.02,-4,-2,-4,89,0
[12:38:03.244 29/11/2023],-193592.9,-110287,-145674.5,-207236.2,-185308.6,-180028.5,-201666.9,-157507.9,0.05,0.00,1.02,-4,-2,-4,89,0
[12:38:03.248 29/11/2023],-193599.8,-110306.3,-145701.1,-207251.9,-185306.6,-180021.3,-201684.8,-157523.5,0.05,0.00,1.02,-4,-2,-4,89,0
[12:38:03.252 29/11/2023],-193622.9,-110320.9,-145731,-207278.4,-185328,-180028.2,-201704.6,-157551.7,0.05,0.00,1.02,-4,-2,-4,89,0
[12:38:03.256 29/11/2023],-193631.1,-110306.8,-145736.9,-207284.3,-185348.3,-180058.5,-201706.2,-157563.7,0.05,0.00,1.02,-4,-2,-4,89,0
[12:38:03.260 29/11/2023],-193624.6,-110294.3,-145719.8,-207264.1,-185326.2,-180053,-201692.9,-157547.5,0.05,0.00,1.02,-4,-2,-4,89,0
[12:38:03.264 29/11/2023],-193640.3,-110307.3,-145724.3,-207268.4,-185336.8,-180062.7,-201702,-157553.7,0.05,0.00,1.02,-4,-2,-4,89,0
[12:38:03.268 29/11/2023],-193649.1,-110322.3,-145729.6,-207278.5,-185352.2,-180048.4,-201708.3,-157564.3,0.05,0.00,1.02,-4,-2,-4,89,0
[12:38:03.272 29/11/2023],-193641.5,-110318.4,-145721.8,-207271.8,-185362.5,-180041.8,-201701.1,-157557.4,0.05,0.00,1.02,-4,-2,-4,89,0
[12:38:03.276 29/11/2023],-193611,-110284.8,-145686.7,-207252.3,-185323.1,-180041.2,-201676.5,-157526.7,0.05,0.00,1.02,-4,-2,-4,89,0
[12:38:03.280 29/11/2023],-193592.9,-110287,-145674.5,-207236.2,-185308.6,-180028.5,-201666.9,-157507.9,0.05,0.00,1.02,-4,-2,-4,89,0
[12:38:03.284 29/11/2023],-193599.8,-110306.3,-145701.1,-207251.9,-185306.6,-180021.3,-201684.8,-157523.5,0.05,0.00,1.02,-4,-2,-4,89,0
[12:38:03.288 29/11/2023],-193622.9,-110320.9,-145731,-207278.4,-185328,-180028.2,-201704.6,-157551.7,0.05,0.00,1.02,-4,-2,-4,89,0
[12:38:03.292 29/11/2023],-193631.1,-110306.8,-145736.9,-207284.3,-185348.3,-180058.5,-201706.2,-157563.7,0.05,0.00,1.02,-4,-2,-4,89,0
[12:38:03.296 29/11/2023],-193594.8,-110283.1,-145686.5,-207232.5,-185289.3,-180020.6,-201668.4,-157522.9,0.05,0.00,1.02,-4,-2,-4,89,0
[12:38:03.300 29/11/2023],-193616.2,-110301.7,-145710.5,-207248.9,-185332.3,-180046.2,-201685.6,-157540.3,0.05,0.00,1.02,-4,-2,-4,89,0
[12:38:03.304 29/11/2023],-193618.5,-110294.3,-145702.1,-207240.1,-185337,-180020.2,-201677.8,-157538.7,0.05,0.00,1.02,-4,-2,-4,89,0
[12:38:03.308 29/11/2023],-193599.2,-110271.6,-145681.3,-207222.2,-185304.2,-179986.3,-201658,-157519.4,0.05,0.00,1.02,-4,-2,-4,89,0
[12:38:03.312 29/11/2023],-193609.1,-110288,-145690.7,-207238.5,-185300.7,-180002.8,-201673.8,-157527.5,0.03,-0.02,1.02,-4,-2,-4,89,0
[12:38:03.316 29/11/2023],-193625.5,-110301.9,-145705.9,-207254.1,-185321,-180033.4,-201692.1,-157544,0.03,-0.02,1.02,-4,-2,-4,89,0
[12:38:03.320 29/11/2023],-193645.8,-110322.3,-145732.6,-207281,-185342.6,-180059.7,-201717.9,-157572.3,0.03,-0.02,1.02,-4,-2,-4,89,0
[12:38:03.324 29/11/2023],-193636.3,-110319,-145748.4,-207282.6,-185340.8,-180058.3,-201720.2,-157575,0.03,-0.02,1.02,-4,-2,-4,89,0
[12:38:03.328 29/11/2023],-193610.7,-110300.2,-145724.5,-207257.8,-185323.4,-180050.3,-201691.6,-157558.4,0.03,-0.02,1.02,-4,-2,-4,89,0
[12:38:03.332 29/11/2023],-193640.1,-110313.5,-145724.7,-207274.6,-185337.3,-180051.6,-201700.2,-157573.3,0.03,-0.02,1.02,-4,-2,-4,89,0
[12:38:03.336 29/11/2023],-193654,-110330.2,-145743.3,-207289,-185373.6,-180074.5,-201723,-157588.9,0.03,-0.02,1.02,-4,-2,-4,89,0
[12:38:03.340 29/11/2023],-193639.5,-110309.1,-145734.7,-207267.9,-185356.3,-180049.4,-201710.5,-157562.5,0.03,-0.02,1.02,-4,-2,-4,89,0
[12:38:03.344 29/11/2023],-193616.8,-110274.9,-145714,-207245.1,-185310,-180024.4,-201685.3,-157535.3,0.03,-0.02,1.02,-4,-2,-4,89,0
[12:38:03.348 29/11/2023],-193615.2,-110290.3,-145715.4,-207250.3,-185317.6,-180035.1,-201689.8,-157550.2,0.03,-0.02,1.02,-4,-2,-4,89,0
[12:38:03.352 29/11/2023],-193617.2,-110310.3,-145723,-207258.5,-185343.6,-180038.8,-201697.2,-157554.3,0.03,-0.02,1.02,-4,-2,-4,89,0
[12:38:03.356 29/11/2023],-193623.8,-110301,-145713.2,-207256.5,-185327.3,-180032.7,-201686.5,-157538.9,0.02,0.00,1.02,-4,-2,-4,89,0
[12:38:03.360 29/11/2023],-193619.8,-110283.1,-145691.8,-207239.6,-185302.5,-180011.6,-201673.4,-157526.2,0.02,0.00,1.02,-4,-2,-4,89,0
[12:38:03.364 29/11/2023],-193597.5,-110269.1,-145682,-207225.7,-185293.1,-179996.2,-201662,-157504.4,0.02,0.00,1.02,-4,-2,-4,89,0
[12:38:03.368 29/11/2023],-193591.5,-110273.3,-145690,-207235,-185287.2,-179991.3,-201665.2,-157511.1,0.02,0.00,1.02,-4,-2,-4,89,0
[12:38:03.372 29/11/2023],-193583,-110270.2,-145683.1,-207231.6,-185276.2,-180014.1,-201660,-157515.4,0.02,0.00,1.02,-4,-2,-4,89,0
[12:38:03.376 29/11/2023],-193584.8,-110267.2,-145681.4,-207227.8,-185288.4,-180015.4,-201657.5,-157508.9,0.02,0.00,1.02,-4,-2,-4,89,0
[12:38:03.380 29/11/2023],-193582.9,-110251.6,-145674.5,-207222.2,-185274.7,-180008.4,-201650.5,-157501.7,0.02,0.00,1.02,-4,-2,-4,89,0
[12:38:03.384 29/11/2023],-193615.2,-110290.3,-145715.4,-207250.3,-185317.6,-180035.1,-201689.8,-157550.2,0.02,0.00,1.02,-4,-2,-4,89,0
[12:38:03.388 29/11/2023],-193617.2,-110310.3,-145723,-207258.5,-185343.6,-180038.8,-201697.2,-157554.3,0.02,0.00,1.02,-4,-2,-4,89,0
[12:38:03.392 29/11/2023],-193623.8,-110301,-145713.2,-207256.5,-185327.3,-180032.7,-201686.5,-157538.9,0.02,0.00,1.02,-4,-2,-4,89,0
[12:38:03.396 29/11/2023],-193619.8,-110283.1,-145691.8,-207239.6,-185302.5,-180011.6,-201673.4,-157526.2,0.02,0.00,1.02,-4,-2,-4,89,0
[12:38:03.400 29/11/2023],-193597.5,-110269.1,-145682,-207225.7,-185293.1,-179996.2,-201662,-157504.4,0.02,0.00,1.02,-4,-2,-4,89,0
[12:38:03.404 29/11/2023],-193591.5,-110273.3,-145690,-207235,-185287.2,-179991.3,-201665.2,-157511.1,0.02,0.00,1.02,-4,-2,-4,89,0
[12:38:03.408 29/11/2023],-193583,-110270.2,-145683.1,-207231.6,-185276.2,-180014.1,-201660,-157515.4,0.02,0.00,1.02,-4,-2,-4,89,0
[12:38:03.412 29/11/2023],-193584.8,-110267.2,-145681.4,-207227.8,-185288.4,-180015.4,-201657.5,-157508.9,0.02,0.00,1.02,-4,-2,-4,89,0
[12:38:03.416 29/11/2023],-193573.8,-110230.4,-145655,-207188.9,-185275.8,-179966.5,-201628.3,-157475,0.02,0.00,1.02,-4,-2,-4,89,0
[12:38:03.420 29/11/2023],-193585.7,-110246.4,-145682,-207228.5,-185282.3,-180009.3,-201654.5,-157507.9,0.03,0.00,1.02,-4,-2,-4,89,0
[12:38:03.424 29/11/2023],-193574.6,-110233.1,-145676,-207224.5,-185274.1,-180000.5,-201645.2,-157500,0.03,0.00,1.02,-4,-2,-4,89,0
[12:38:03.428 29/11/2023],-193582.6,-110250,-145666.6,-207229.5,-185269.8,-179977.4,-201644.9,-157498.6,0.03,0.00,1.02,-4,-2,-4,89,0
[12:38:03.432 29/11/2023],-193591,-110261.1,-145671.2,-207229.4,-185282.8,-179997.9,-201646.8,-157498.4,0.03,0.00,1.02,-4,-2,-4,89,0
[12:38:03.436 29/11/2023],-193598.8,-110261.3,-145690,-207231.2,-185269.6,-180007,-201657.3,-157510.8,0.03,0.00,1.02,-4,-2,-4,89,0
[12:38:03.440 29/11/2023],-193595.3,-110251.3,-145689.4,-207232.3,-185279.1,-179991,-201651.7,-157508.8,0.03,0.00,1.02,-4,-2,-4,89,0
[12:38:03.444 29/11/2023],-193582.9,-110241.9,-145680.2,-207216.4,-185275.6,-179972.4,-201642.5,-157497.8,0.03,0.00,1.02,-4,-2,-4,89,0
[12:38:03.448 29/11/2023],-193576.1,-110230.3,-145665.1,-207193.3,-185274,-179957.6,-201633.1,-157482.6,0.03,0.00,1.02,-4,-2,-4,89,0
[12:38:03.452 29/11/2023],-193573.8,-110230.4,-145655,-207188.9,-185275.8,-179966.5,-201628.3,-157475,0.03,0.00,1.02,-4,-2,-4,89,0
[12:38:03.456 29/11/2023],-193565.1,-110235.8,-145664.6,-207202.7,-185282.4,-179974.4,-201636.5,-157486,0.03,-0.02,1.02,-4,-2,-4,89,0
[12:38:03.460 29/11/2023],-193541.9,-110218.3,-145656.1,-207185.2,-185264.7,-179968.5,-201620.4,-157473.5,0.03,-0.02,1.02,-4,-2,-4,89,0
[12:38:03.464 29/11/2023],-193524.3,-110195.7,-145642.5,-207174.6,-185259.2,-179952.3,-201599.1,-157456,0.03,-0.02,1.02,-4,-2,-4,89,0
[12:38:03.468 29/11/2023],-193536.4,-110190.7,-145644,-207196.1,-185262.7,-179951.4,-201606.5,-157470.6,0.03,-0.02,1.02,-4,-2,-4,89,0
[12:38:03.472 29/11/2023],-193581.4,-110222.4,-145661.7,-207223.3,-185254.7,-179962.6,-201632,-157498.9,0.03,-0.02,1.02,-4,-2,-4,89,0
[12:38:03.476 29/11/2023],-193582.8,-110238.7,-145647.4,-207214.5,-185265.1,-179967,-201626.5,-157489.2,0.03,-0.02,1.02,-4,-2,-4,89,0
[12:38:03.480 29/11/2023],-193582.1,-110249.4,-145661,-207222.8,-185291.6,-179990.2,-201634.7,-157497.8,0.03,-0.02,1.02,-4,-2,-4,89,0
[12:38:03.484 29/11/2023],-193597.3,-110268.7,-145694.6,-207257.3,-185305.4,-180005.6,-201664.2,-157534.9,0.03,-0.02,1.02,-4,-2,-4,89,0
[12:38:03.488 29/11/2023],-193603.6,-110275.8,-145711.9,-207264.2,-185328.2,-180031.3,-201681.6,-157547.5,0.03,-0.02,1.02,-4,-2,-4,89,0
[12:38:03.492 29/11/2023],-193594,-110251.4,-145695.1,-207236.4,-185300,-180004.9,-201662.2,-157524.6,0.05,0.00,1.02,-4,-2,-4,89,0
[12:38:03.496 29/11/2023],-193587.3,-110234.1,-145666.2,-207216.1,-185261.2,-179986,-201634.9,-157500,0.05,0.00,1.02,-4,-2,-4,89,0
[12:38:03.500 29/11/2023],-193588.9,-110241.8,-145668.8,-207214.6,-185271.1,-179980.1,-201638.4,-157496.1,0.05,0.00,1.02,-4,-2,-4,89,0
[12:38:03.504 29/11/2023],-193578.5,-110240.5,-145671,-207217.3,-185280.5,-180001.1,-201643.8,-157504.9,0.05,0.00,1.02,-4,-2,-4,89,0
[12:38:03.508 29/11/2023],-193572.1,-110219.1,-145642.1,-207183.9,-185241.1,-179960.2,-201623.2,-157492.7,0.05,0.00,1.02,-4,-2,-4,89,0
[12:38:03.512 29/11/2023],-193578,-110232.6,-145652,-207189.9,-185244.4,-179953.8,-201627.4,-157497.3,0.05,0.00,1.02,-4,-2,-4,89,0
[12:38:03.516 29/11/2023],-193579.9,-110247.7,-145665.1,-207214,-185270.7,-179970.2,-201638.9,-157507.6,0.05,0.00,1.02,-4,-2,-4,89,0
[12:38:03.520 29/11/2023],-193581.7,-110242.9,-145657.6,-207210,-185267.2,-179979.5,-201631.8,-157497.8,0.05,0.00,1.02,-4,-2,-4,89,0
[12:38:03.524 29/11/2023],-193574.2,-110224.6,-145645.9,-207194.6,-185253.4,-179956.6,-201618,-157482,0.05,0.00,1.02,-4,-2,-4,89,0
[12:38:03.528 29/11/2023],-193558.3,-110217.2,-145658.8,-207205.3,-185271.5,-179978.8,-201631.3,-157491.9,0.05,0.00,1.02,-4,-2,-4,89,0
[12:38:03.532 29/11/2023],-193555.7,-110207.1,-145657.7,-207201.5,-185265.1,-179978.7,-201630.4,-157494.4,0.05,0.00,1.02,-4,-2,-4,89,0
[12:38:03.536 29/11/2023],-193568.9,-110231.6,-145676.9,-207221,-185281.2,-180010.4,-201641.6,-157507.3,0.05,0.00,1.02,-4,-2,-4,89,0
[12:38:03.540 29/11/2023],-193578.5,-110240.5,-145671,-207217.3,-185280.5,-180001.1,-201643.8,-157504.9,0.05,0.00,1.02,-4,-2,-4,89,0
[12:38:03.544 29/11/2023],-193572.1,-110219.1,-145642.1,-207183.9,-185241.1,-179960.2,-201623.2,-157492.7,0.05,0.00,1.02,-4,-2,-4,89,0
[12:38:03.548 29/11/2023],-193539.1,-110214.1,-145632.8,-207178.9,-185239,-179964.5,-201614.3,-157484.2,0.05,0.00,1.02,-4,-2,-4,89,0
[12:38:03.552 29/11/2023],-193562.5,-110218.5,-145651.4,-207200.5,-185271.1,-179986.3,-201628.8,-157501.2,0.05,0.00,1.02,-4,-2,-4,89,0
[12:38:03.556 29/11/2023],-193575.4,-110204.9,-145645.6,-207197.9,-185282.6,-179956.3,-201621.4,-157488.7,0.05,0.00,1.02,-4,-2,-4,89,0
[12:38:03.560 29/11/2023],-193565.3,-110211,-145634.7,-207180.1,-185258,-179937.4,-201607.1,-157472.1,0.05,0.00,1.02,-4,-2,-4,89,0
[12:38:03.564 29/11/2023],-193579.3,-110222.7,-145655.4,-207191.2,-185267.7,-179976.7,-201627.2,-157484.8,0.03,0.00,1.02,-4,-2,-4,89,0
